SpectraSuite Data File
++++++++++++++++++++++++++++++++++++
Date: Wed Feb 01 15:20:53 EET 2017
User: optolab
Spectrometer Serial Number: USB4C02475
Spectrometer Channel: 0
Integration Time (usec): 100000
Spectra Averaged: 1
Boxcar Smoothing: 0
Correct for Electrical Dark: No
Strobe/Lamp Enabled: No
Correct for Detector Non-linearity: No
Correct for Stray Light: No
Number of Pixels in Spectrum: 3648
>>>>>Begin Spectral Data<<<<<
344,91	1054,704
345,13	1054,704
345,35	1054,704
345,57	1013,745
345,79	1054,704
346,00	1421,290
346,22	1290,220
346,44	1245,165
346,66	1351,659
346,87	1245,165
347,09	1222,637
347,31	1296,364
347,53	1320,940
347,74	1234,925
347,96	1275,885
348,18	1212,398
348,40	1193,966
348,61	1239,021
348,83	1290,220
349,05	1292,268
349,27	1292,268
349,48	1224,685
349,70	1357,803
349,92	1277,932
350,14	1245,165
350,35	1267,693
350,57	1384,427
350,79	1292,268
351,01	1357,803
351,22	1239,021
351,44	1341,420
351,66	1265,645
351,87	1454,058
352,09	1365,995
352,31	1347,563
352,53	1292,268
352,74	1331,180
352,96	1210,350
353,18	1269,741
353,40	1288,172
353,61	1253,357
353,83	1327,084
354,05	1368,043
354,26	1298,412
354,48	1300,460
354,70	1222,637
354,92	1402,859
355,13	1189,870
355,35	1316,844
355,57	1292,268
355,78	1204,206
356,00	1382,379
356,22	1259,501
356,44	1382,379
356,65	1314,796
356,87	1327,084
357,09	1341,420
357,30	1236,973
357,52	1273,837
357,74	1292,268
357,95	1257,453
358,17	1263,597
358,39	1245,165
358,60	1269,741
358,82	1279,980
359,04	1337,324
359,26	1200,110
359,47	1327,084
359,69	1349,611
359,91	1275,885
360,12	1359,851
360,34	1296,364
360,56	1376,235
360,77	1308,652
360,99	1355,755
361,21	1220,589
361,42	1335,276
361,64	1368,043
361,86	1288,172
362,07	1361,899
362,29	1220,589
362,51	1341,420
362,72	1271,789
362,94	1284,076
363,16	1329,132
363,37	1347,563
363,59	1298,412
363,81	1224,685
364,02	1427,434
364,24	1247,213
364,46	1372,139
364,67	1335,276
364,89	1279,980
365,11	1241,069
365,32	1316,844
365,54	1314,796
365,76	1290,220
365,97	1325,036
366,19	1294,316
366,41	1247,213
366,62	1388,523
366,84	1236,973
367,05	1224,685
367,27	1284,076
367,49	1310,700
367,70	1337,324
367,92	1249,261
368,14	1279,980
368,35	1370,091
368,57	1224,685
368,79	1298,412
369,00	1255,405
369,22	1312,748
369,43	1228,781
369,65	1279,980
369,87	1247,213
370,08	1286,124
370,30	1239,021
370,51	1200,110
370,73	1253,357
370,95	1251,309
371,16	1247,213
371,38	1329,132
371,60	1304,556
371,81	1341,420
372,03	1351,659
372,24	1302,508
372,46	1312,748
372,68	1210,350
372,89	1241,069
373,11	1288,172
373,32	1269,741
373,54	1363,947
373,76	1310,700
373,97	1245,165
374,19	1355,755
374,40	1273,837
374,62	1320,940
374,84	1306,604
375,05	1210,350
375,27	1310,700
375,48	1277,932
375,70	1187,822
375,92	1245,165
376,13	1318,892
376,35	1210,350
376,56	1226,733
376,78	1220,589
376,99	1251,309
377,21	1273,837
377,43	1214,445
377,64	1279,980
377,86	1329,132
378,07	1236,973
378,29	1361,899
378,51	1245,165
378,72	1275,885
378,94	1277,932
379,15	1249,261
379,37	1269,741
379,58	1275,885
379,80	1273,837
380,01	1318,892
380,23	1224,685
380,45	1320,940
380,66	1343,468
380,88	1271,789
381,09	1249,261
381,31	1282,028
381,52	1259,501
381,74	1300,460
381,95	1308,652
382,17	1292,268
382,39	1320,940
382,60	1339,372
382,82	1214,445
383,03	1208,302
383,25	1206,254
383,46	1300,460
383,68	1259,501
383,89	1382,379
384,11	1282,028
384,32	1259,501
384,54	1294,316
384,76	1318,892
384,97	1273,837
385,19	1159,150
385,40	1271,789
385,62	1265,645
385,83	1300,460
386,05	1210,350
386,26	1220,589
386,48	1144,815
386,69	1216,493
386,91	1300,460
387,12	1214,445
387,34	1230,829
387,55	1105,903
387,77	1163,246
387,98	1220,589
388,20	1212,398
388,41	1269,741
388,63	1368,043
388,84	1279,980
389,06	1300,460
389,27	1267,693
389,49	1216,493
389,70	1300,460
389,92	1290,220
390,13	1247,213
390,35	1159,150
390,56	1282,028
390,78	1243,117
390,99	1288,172
391,21	1322,988
391,42	1273,837
391,64	1228,781
391,85	1224,685
392,07	1224,685
392,28	1189,870
392,50	1312,748
392,71	1236,973
392,93	1179,630
393,14	1234,925
393,36	1318,892
393,57	1157,102
393,79	1347,563
394,00	1236,973
394,22	1171,438
394,43	1167,342
394,65	1327,084
394,86	1275,885
395,08	1218,541
395,29	1196,014
395,50	1409,002
395,72	1247,213
395,93	1290,220
396,15	1279,980
396,36	1200,110
396,58	1257,453
396,79	1284,076
397,01	1226,733
397,22	1265,645
397,44	1214,445
397,65	1214,445
397,87	1146,862
398,08	1286,124
398,29	1247,213
398,51	1343,468
398,72	1218,541
398,94	1265,645
399,15	1232,877
399,37	1261,549
399,58	1118,191
399,80	1204,206
400,01	1232,877
400,22	1339,372
400,44	1236,973
400,65	1327,084
400,87	1218,541
401,08	1245,165
401,30	1206,254
401,51	1245,165
401,72	1333,228
401,94	1136,623
402,15	1269,741
402,37	1083,375
402,58	1222,637
402,80	1308,652
403,01	1128,431
403,22	1296,364
403,44	1204,206
403,65	1243,117
403,87	1150,958
404,08	1226,733
404,30	1155,054
404,51	1318,892
404,72	1265,645
404,94	1206,254
405,15	1316,844
405,37	1202,158
405,58	1171,438
405,79	1189,870
406,01	1279,980
406,22	1189,870
406,44	1198,062
406,65	1259,501
406,86	1306,604
407,08	1202,158
407,29	1193,966
407,51	1189,870
407,72	1263,597
407,93	1239,021
408,15	1243,117
408,36	1294,316
408,58	1202,158
408,79	1251,309
409,00	1198,062
409,22	1292,268
409,43	1216,493
409,64	1241,069
409,86	1189,870
410,07	1200,110
410,29	1171,438
410,50	1169,390
410,71	1288,172
410,93	1234,925
411,14	1185,774
411,35	1253,357
411,57	1191,918
411,78	1259,501
412,00	1214,445
412,21	1316,844
412,42	1206,254
412,64	1249,261
412,85	1196,014
413,06	1290,220
413,28	1288,172
413,49	1241,069
413,70	1200,110
413,92	1241,069
414,13	1216,493
414,34	1191,918
414,56	1292,268
414,77	1239,021
414,98	1228,781
415,20	1265,645
415,41	1161,198
415,63	1138,671
415,84	1216,493
416,05	1265,645
416,27	1212,398
416,48	1224,685
416,69	1124,335
416,91	1284,076
417,12	1210,350
417,33	1189,870
417,55	1222,637
417,76	1222,637
417,97	1239,021
418,19	1286,124
418,40	1255,405
418,61	1216,493
418,83	1277,932
419,04	1243,117
419,25	1284,076
419,46	1181,678
419,68	1218,541
419,89	1302,508
420,10	1216,493
420,32	1269,741
420,53	1163,246
420,74	1234,925
420,96	1204,206
421,17	1175,534
421,38	1224,685
421,60	1255,405
421,81	1265,645
422,02	1263,597
422,23	1271,789
422,45	1210,350
422,66	1118,191
422,87	1202,158
423,09	1222,637
423,30	1239,021
423,51	1263,597
423,73	1191,918
423,94	1222,637
424,15	1159,150
424,36	1257,453
424,58	1228,781
424,79	1212,398
425,00	1249,261
425,22	1232,877
425,43	1212,398
425,64	1103,855
425,85	1218,541
426,07	1226,733
426,28	1284,076
426,49	1218,541
426,71	1234,925
426,92	1277,932
427,13	1226,733
427,34	1329,132
427,56	1327,084
427,77	1243,117
427,98	1132,527
428,19	1245,165
428,41	1132,527
428,62	1191,918
428,83	1236,973
429,04	1173,486
429,26	1202,158
429,47	1208,302
429,68	1241,069
429,89	1263,597
430,11	1189,870
430,32	1181,678
430,53	1159,150
430,74	1218,541
430,96	1251,309
431,17	1177,582
431,38	1275,885
431,59	1181,678
431,81	1202,158
432,02	1224,685
432,23	1216,493
432,44	1153,006
432,66	1255,405
432,87	1226,733
433,08	1187,822
433,29	1173,486
433,51	1292,268
433,72	1234,925
433,93	1243,117
434,14	1171,438
434,35	1308,652
434,57	1187,822
434,78	1275,885
434,99	1212,398
435,20	1253,357
435,42	1232,877
435,63	1226,733
435,84	1214,445
436,05	1171,438
436,26	1232,877
436,48	1210,350
436,69	1267,693
436,90	1189,870
437,11	1214,445
437,32	1206,254
437,54	1169,390
437,75	1279,980
437,96	1163,246
438,17	1333,228
438,38	1128,431
438,60	1247,213
438,81	1212,398
439,02	1183,726
439,23	1230,829
439,44	1169,390
439,66	1171,438
439,87	1142,767
440,08	1230,829
440,29	1273,837
440,50	1193,966
440,72	1218,541
440,93	1136,623
441,14	1150,958
441,35	1165,294
441,56	1208,302
441,77	1155,054
441,99	1169,390
442,20	1226,733
442,41	1241,069
442,62	1243,117
442,83	1214,445
443,04	1239,021
443,26	1220,589
443,47	1249,261
443,68	1208,302
443,89	1214,445
444,10	1239,021
444,31	1273,837
444,53	1277,932
444,74	1212,398
444,95	1138,671
445,16	1234,925
445,37	1169,390
445,58	1228,781
445,80	1300,460
446,01	1216,493
446,22	1257,453
446,43	1132,527
446,64	1181,678
446,85	1222,637
447,06	1218,541
447,28	1255,405
447,49	1202,158
447,70	1148,910
447,91	1216,493
448,12	1210,350
448,33	1206,254
448,54	1204,206
448,76	1206,254
448,97	1212,398
449,18	1271,789
449,39	1222,637
449,60	1169,390
449,81	1214,445
450,02	1181,678
450,23	1236,973
450,45	1275,885
450,66	1251,309
450,87	1193,966
451,08	1210,350
451,29	1191,918
451,50	1196,014
451,71	1183,726
451,92	1312,748
452,13	1300,460
452,35	1138,671
452,56	1171,438
452,77	1177,582
452,98	1269,741
453,19	1302,508
453,40	1304,556
453,61	1288,172
453,82	1269,741
454,03	1226,733
454,25	1140,719
454,46	1228,781
454,67	1216,493
454,88	1191,918
455,09	1232,877
455,30	1212,398
455,51	1232,877
455,72	1185,774
455,93	1292,268
456,14	1218,541
456,35	1161,198
456,56	1220,589
456,78	1220,589
456,99	1234,925
457,20	1200,110
457,41	1284,076
457,62	1157,102
457,83	1171,438
458,04	1251,309
458,25	1282,028
458,46	1226,733
458,67	1251,309
458,88	1187,822
459,09	1251,309
459,30	1251,309
459,51	1220,589
459,73	1275,885
459,94	1189,870
460,15	1175,534
460,36	1251,309
460,57	1259,501
460,78	1265,645
460,99	1325,036
461,20	1177,582
461,41	1243,117
461,62	1288,172
461,83	1322,988
462,04	1267,693
462,25	1189,870
462,46	1202,158
462,67	1253,357
462,88	1245,165
463,09	1339,372
463,30	1267,693
463,51	1187,822
463,72	1271,789
463,93	1273,837
464,15	1263,597
464,36	1347,563
464,57	1290,220
464,78	1290,220
464,99	1241,069
465,20	1222,637
465,41	1228,781
465,62	1241,069
465,83	1245,165
466,04	1239,021
466,25	1247,213
466,46	1249,261
466,67	1277,932
466,88	1222,637
467,09	1171,438
467,30	1282,028
467,51	1171,438
467,72	1241,069
467,93	1157,102
468,14	1218,541
468,35	1265,645
468,56	1286,124
468,77	1243,117
468,98	1292,268
469,19	1282,028
469,40	1318,892
469,61	1255,405
469,82	1245,165
470,03	1218,541
470,24	1134,575
470,45	1310,700
470,66	1263,597
470,87	1294,316
471,08	1228,781
471,29	1245,165
471,50	1273,837
471,71	1251,309
471,92	1167,342
472,13	1271,789
472,34	1255,405
472,55	1249,261
472,76	1265,645
472,97	1222,637
473,18	1337,324
473,39	1241,069
473,60	1243,117
473,81	1261,549
474,01	1261,549
474,22	1239,021
474,43	1171,438
474,64	1230,829
474,85	1335,276
475,06	1282,028
475,27	1322,988
475,48	1284,076
475,69	1316,844
475,90	1290,220
476,11	1327,084
476,32	1267,693
476,53	1302,508
476,74	1214,445
476,95	1222,637
477,16	1304,556
477,37	1304,556
477,58	1290,220
477,79	1220,589
478,00	1279,980
478,21	1306,604
478,41	1210,350
478,62	1296,364
478,83	1249,261
479,04	1239,021
479,25	1292,268
479,46	1234,925
479,67	1138,671
479,88	1171,438
480,09	1325,036
480,30	1265,645
480,51	1286,124
480,72	1284,076
480,93	1236,973
481,14	1239,021
481,34	1271,789
481,55	1271,789
481,76	1343,468
481,97	1267,693
482,18	1322,988
482,39	1216,493
482,60	1241,069
482,81	1241,069
483,02	1265,645
483,23	1288,172
483,44	1265,645
483,65	1275,885
483,85	1261,549
484,06	1298,412
484,27	1277,932
484,48	1255,405
484,69	1163,246
484,90	1185,774
485,11	1247,213
485,32	1204,206
485,53	1224,685
485,73	1316,844
485,94	1296,364
486,15	1208,302
486,36	1304,556
486,57	1175,534
486,78	1249,261
486,99	1212,398
487,20	1257,453
487,41	1368,043
487,61	1259,501
487,82	1253,357
488,03	1304,556
488,24	1198,062
488,45	1257,453
488,66	1206,254
488,87	1288,172
489,08	1300,460
489,28	1314,796
489,49	1189,870
489,70	1267,693
489,91	1218,541
490,12	1222,637
490,33	1241,069
490,54	1251,309
490,74	1241,069
490,95	1214,445
491,16	1259,501
491,37	1228,781
491,58	1210,350
491,79	1243,117
492,00	1191,918
492,20	1241,069
492,41	1265,645
492,62	1269,741
492,83	1288,172
493,04	1331,180
493,25	1267,693
493,45	1249,261
493,66	1249,261
493,87	1265,645
494,08	1245,165
494,29	1282,028
494,50	1263,597
494,70	1265,645
494,91	1314,796
495,12	1181,678
495,33	1275,885
495,54	1322,988
495,75	1236,973
495,95	1271,789
496,16	1325,036
496,37	1296,364
496,58	1193,966
496,79	1292,268
496,99	1224,685
497,20	1372,139
497,41	1306,604
497,62	1214,445
497,83	1226,733
498,04	1210,350
498,24	1239,021
498,45	1236,973
498,66	1220,589
498,87	1220,589
499,08	1384,427
499,28	1183,726
499,49	1263,597
499,70	1224,685
499,91	1261,549
500,12	1239,021
500,32	1267,693
500,53	1269,741
500,74	1316,844
500,95	1171,438
501,15	1226,733
501,36	1212,398
501,57	1236,973
501,78	1212,398
501,99	1204,206
502,19	1267,693
502,40	1253,357
502,61	1247,213
502,82	1234,925
503,02	1222,637
503,23	1239,021
503,44	1265,645
503,65	1251,309
503,86	1265,645
504,06	1183,726
504,27	1279,980
504,48	1208,302
504,69	1210,350
504,89	1204,206
505,10	1175,534
505,31	1224,685
505,52	1251,309
505,72	1228,781
505,93	1196,014
506,14	1148,910
506,35	1210,350
506,55	1212,398
506,76	1212,398
506,97	1271,789
507,18	1279,980
507,38	1277,932
507,59	1159,150
507,80	1243,117
508,01	1277,932
508,21	1282,028
508,42	1263,597
508,63	1220,589
508,84	1277,932
509,04	1261,549
509,25	1277,932
509,46	1271,789
509,67	1249,261
509,87	1239,021
510,08	1275,885
510,29	1200,110
510,49	1226,733
510,70	1259,501
510,91	1284,076
511,12	1269,741
511,32	1261,549
511,53	1187,822
511,74	1269,741
511,94	1130,479
512,15	1279,980
512,36	1249,261
512,57	1185,774
512,77	1144,815
512,98	1165,294
513,19	1243,117
513,39	1263,597
513,60	1236,973
513,81	1261,549
514,01	1230,829
514,22	1220,589
514,43	1132,527
514,64	1210,350
514,84	1304,556
515,05	1341,420
515,26	1257,453
515,46	1210,350
515,67	1327,084
515,88	1212,398
516,08	1259,501
516,29	1179,630
516,50	1241,069
516,70	1279,980
516,91	1245,165
517,12	1159,150
517,32	1185,774
517,53	1202,158
517,74	1175,534
517,95	1214,445
518,15	1185,774
518,36	1243,117
518,57	1171,438
518,77	1241,069
518,98	1286,124
519,19	1351,659
519,39	1196,014
519,60	1222,637
519,80	1304,556
520,01	1263,597
520,22	1208,302
520,42	1218,541
520,63	1251,309
520,84	1263,597
521,04	1232,877
521,25	1163,246
521,46	1175,534
521,66	1222,637
521,87	1265,645
522,08	1161,198
522,28	1200,110
522,49	1245,165
522,70	1228,781
522,90	1175,534
523,11	1222,637
523,31	1140,719
523,52	1271,789
523,73	1142,767
523,93	1193,966
524,14	1214,445
524,35	1263,597
524,55	1165,294
524,76	1294,316
524,97	1189,870
525,17	1241,069
525,38	1208,302
525,58	1179,630
525,79	1288,172
526,00	1249,261
526,20	1255,405
526,41	1286,124
526,61	1232,877
526,82	1193,966
527,03	1204,206
527,23	1282,028
527,44	1128,431
527,64	1232,877
527,85	1271,789
528,06	1216,493
528,26	1157,102
528,47	1196,014
528,68	1224,685
528,88	1214,445
529,09	1212,398
529,29	1214,445
529,50	1214,445
529,70	1169,390
529,91	1181,678
530,12	1169,390
530,32	1292,268
530,53	1269,741
530,73	1187,822
530,94	1200,110
531,15	1210,350
531,35	1314,796
531,56	1218,541
531,76	1253,357
531,97	1228,781
532,17	1241,069
532,38	1224,685
532,59	1159,150
532,79	1153,006
533,00	1175,534
533,20	1146,862
533,41	1198,062
533,61	1196,014
533,82	1202,158
534,03	1239,021
534,23	1140,719
534,44	1177,582
534,64	1210,350
534,85	1185,774
535,05	1198,062
535,26	1222,637
535,46	1193,966
535,67	1200,110
535,88	1269,741
536,08	1234,925
536,29	1245,165
536,49	1175,534
536,70	1222,637
536,90	1269,741
537,11	1286,124
537,31	1232,877
537,52	1224,685
537,72	1187,822
537,93	1159,150
538,13	1222,637
538,34	1159,150
538,55	1212,398
538,75	1206,254
538,96	1206,254
539,16	1185,774
539,37	1214,445
539,57	1175,534
539,78	1255,405
539,98	1153,006
540,19	1259,501
540,39	1220,589
540,60	1228,781
540,80	1169,390
541,01	1210,350
541,21	1159,150
541,42	1216,493
541,62	1214,445
541,83	1183,726
542,03	1167,342
542,24	1310,700
542,44	1259,501
542,65	1226,733
542,85	1132,527
543,06	1198,062
543,26	1257,453
543,47	1247,213
543,67	1198,062
543,88	1144,815
544,08	1279,980
544,29	1189,870
544,49	1220,589
544,70	1105,903
544,90	1183,726
545,11	1286,124
545,31	1191,918
545,52	1222,637
545,72	1177,582
545,93	1284,076
546,13	1153,006
546,34	1253,357
546,54	1214,445
546,75	1200,110
546,95	1220,589
547,15	1181,678
547,36	1222,637
547,56	1144,815
547,77	1263,597
547,97	1146,862
548,18	1196,014
548,38	1261,549
548,59	1251,309
548,79	1257,453
549,00	1218,541
549,20	1212,398
549,41	1228,781
549,61	1236,973
549,81	1253,357
550,02	1118,191
550,22	1245,165
550,43	1198,062
550,63	1157,102
550,84	1279,980
551,04	1173,486
551,25	1218,541
551,45	1202,158
551,65	1189,870
551,86	1216,493
552,06	1224,685
552,27	1232,877
552,47	1093,615
552,68	1187,822
552,88	1255,405
553,08	1263,597
553,29	1189,870
553,49	1239,021
553,70	1181,678
553,90	1232,877
554,11	1245,165
554,31	1257,453
554,51	1236,973
554,72	1200,110
554,92	1181,678
555,13	1179,630
555,33	1103,855
555,53	1165,294
555,74	1167,342
555,94	1220,589
556,15	1255,405
556,35	1218,541
556,56	1249,261
556,76	1193,966
556,96	1236,973
557,17	1185,774
557,37	1234,925
557,58	1157,102
557,78	1261,549
557,98	1189,870
558,19	1222,637
558,39	1157,102
558,59	1153,006
558,80	1132,527
559,00	1189,870
559,21	1271,789
559,41	1263,597
559,61	1226,733
559,82	1241,069
560,02	1249,261
560,23	1116,143
560,43	1189,870
560,63	1208,302
560,84	1212,398
561,04	1267,693
561,24	1255,405
561,45	1239,021
561,65	1157,102
561,85	1099,759
562,06	1214,445
562,26	1236,973
562,47	1220,589
562,67	1185,774
562,87	1150,958
563,08	1222,637
563,28	1245,165
563,48	1200,110
563,69	1171,438
563,89	1193,966
564,09	1171,438
564,30	1200,110
564,50	1208,302
564,70	1189,870
564,91	1134,575
565,11	1171,438
565,31	1204,206
565,52	1177,582
565,72	1185,774
565,92	1144,815
566,13	1216,493
566,33	1290,220
566,53	1249,261
566,74	1169,390
566,94	1218,541
567,14	1284,076
567,35	1232,877
567,55	1259,501
567,75	1175,534
567,96	1157,102
568,16	1185,774
568,36	1230,829
568,57	1189,870
568,77	1193,966
568,97	1220,589
569,18	1200,110
569,38	1169,390
569,58	1202,158
569,79	1198,062
569,99	1185,774
570,19	1222,637
570,39	1183,726
570,60	1208,302
570,80	1175,534
571,00	1177,582
571,21	1183,726
571,41	1173,486
571,61	1245,165
571,82	1253,357
572,02	1163,246
572,22	1159,150
572,42	1210,350
572,63	1126,383
572,83	1128,431
573,03	1236,973
573,24	1173,486
573,44	1224,685
573,64	1167,342
573,84	1155,054
574,05	1196,014
574,25	1222,637
574,45	1282,028
574,66	1218,541
574,86	1206,254
575,06	1212,398
575,26	1196,014
575,47	1224,685
575,67	1114,095
575,87	1249,261
576,07	1212,398
576,28	1124,335
576,48	1212,398
576,68	1183,726
576,88	1261,549
577,09	1200,110
577,29	1243,117
577,49	1198,062
577,69	1193,966
577,90	1220,589
578,10	1226,733
578,30	1263,597
578,50	1200,110
578,71	1136,623
578,91	1232,877
579,11	1183,726
579,31	1200,110
579,52	1228,781
579,72	1198,062
579,92	1226,733
580,12	1200,110
580,33	1163,246
580,53	1183,726
580,73	1198,062
580,93	1200,110
581,13	1288,172
581,34	1161,198
581,54	1183,726
581,74	1208,302
581,94	1060,848
582,15	1239,021
582,35	1257,453
582,55	1161,198
582,75	1140,719
582,95	1136,623
583,16	1210,350
583,36	1157,102
583,56	1134,575
583,76	1161,198
583,96	1124,335
584,17	1214,445
584,37	1105,903
584,57	1206,254
584,77	1171,438
584,97	1153,006
585,18	1155,054
585,38	1185,774
585,58	1202,158
585,78	1202,158
585,98	1232,877
586,19	1171,438
586,39	1228,781
586,59	1157,102
586,79	1253,357
586,99	1200,110
587,20	1243,117
587,40	1138,671
587,60	1196,014
587,80	1114,095
588,00	1204,206
588,20	1306,604
588,41	1173,486
588,61	1185,774
588,81	1241,069
589,01	1234,925
589,21	1206,254
589,41	1124,335
589,62	1198,062
589,82	1198,062
590,02	1214,445
590,22	1122,287
590,42	1257,453
590,62	1277,932
590,83	1179,630
591,03	1175,534
591,23	1224,685
591,43	1169,390
591,63	1163,246
591,83	1259,501
592,03	1220,589
592,24	1140,719
592,44	1202,158
592,64	1132,527
592,84	1171,438
593,04	1130,479
593,24	1208,302
593,44	1193,966
593,65	1175,534
593,85	1222,637
594,05	1314,796
594,25	1148,910
594,45	1230,829
594,65	1183,726
594,85	1150,958
595,06	1171,438
595,26	1177,582
595,46	1198,062
595,66	1241,069
595,86	1073,136
596,06	1187,822
596,26	1167,342
596,46	1171,438
596,66	1183,726
596,87	1153,006
597,07	1206,254
597,27	1208,302
597,47	1204,206
597,67	1198,062
597,87	1202,158
598,07	1183,726
598,27	1173,486
598,47	1124,335
598,67	1228,781
598,88	1171,438
599,08	1193,966
599,28	1161,198
599,48	1165,294
599,68	1208,302
599,88	1173,486
600,08	1173,486
600,28	1148,910
600,48	1224,685
600,68	1165,294
600,88	1208,302
601,09	1218,541
601,29	1171,438
601,49	1140,719
601,69	1191,918
601,89	1206,254
602,09	1187,822
602,29	1144,815
602,49	1290,220
602,69	1196,014
602,89	1202,158
603,09	1230,829
603,29	1214,445
603,49	1253,357
603,69	1134,575
603,90	1114,095
604,10	1294,316
604,30	1171,438
604,50	1169,390
604,70	1179,630
604,90	1284,076
605,10	1165,294
605,30	1286,124
605,50	1224,685
605,70	1247,213
605,90	1222,637
606,10	1232,877
606,30	1142,767
606,50	1148,910
606,70	1206,254
606,90	1187,822
607,10	1239,021
607,30	1198,062
607,50	1198,062
607,70	1232,877
607,90	1193,966
608,10	1218,541
608,30	1232,877
608,50	1163,246
608,70	1200,110
608,90	1232,877
609,11	1112,047
609,31	1112,047
609,51	1173,486
609,71	1132,527
609,91	1193,966
610,11	1198,062
610,31	1210,350
610,51	1163,246
610,71	1259,501
610,91	1253,357
611,11	1193,966
611,31	1196,014
611,51	1208,302
611,71	1189,870
611,91	1155,054
612,11	1196,014
612,31	1208,302
612,51	1191,918
612,71	1171,438
612,91	1208,302
613,11	1171,438
613,31	1193,966
613,51	1261,549
613,71	1232,877
613,91	1200,110
614,11	1245,165
614,31	1155,054
614,50	1222,637
614,70	1222,637
614,90	1181,678
615,10	1214,445
615,30	1204,206
615,50	1218,541
615,70	1228,781
615,90	1118,191
616,10	1177,582
616,30	1234,925
616,50	1204,206
616,70	1226,733
616,90	1179,630
617,10	1173,486
617,30	1261,549
617,50	1128,431
617,70	1193,966
617,90	1126,383
618,10	1165,294
618,30	1245,165
618,50	1196,014
618,70	1204,206
618,90	1292,268
619,10	1271,789
619,30	1210,350
619,49	1165,294
619,69	1171,438
619,89	1226,733
620,09	1179,630
620,29	1136,623
620,49	1136,623
620,69	1185,774
620,89	1234,925
621,09	1232,877
621,29	1134,575
621,49	1204,206
621,69	1204,206
621,89	1226,733
622,09	1226,733
622,29	1177,582
622,48	1259,501
622,68	1243,117
622,88	1241,069
623,08	1226,733
623,28	1208,302
623,48	1163,246
623,68	1245,165
623,88	1171,438
624,08	1171,438
624,28	1271,789
624,48	1157,102
624,67	1144,815
624,87	1249,261
625,07	1253,357
625,27	1236,973
625,47	1173,486
625,67	1144,815
625,87	1175,534
626,07	1187,822
626,27	1218,541
626,47	1187,822
626,66	1144,815
626,86	1292,268
627,06	1181,678
627,26	1179,630
627,46	1226,733
627,66	1204,206
627,86	1228,781
628,06	1226,733
628,25	1241,069
628,45	1200,110
628,65	1236,973
628,85	1191,918
629,05	1101,807
629,25	1150,958
629,45	1224,685
629,65	1175,534
629,84	1179,630
630,04	1216,493
630,24	1226,733
630,44	1245,165
630,64	1196,014
630,84	1191,918
631,04	1177,582
631,23	1249,261
631,43	1183,726
631,63	1206,254
631,83	1177,582
632,03	1204,206
632,23	1220,589
632,42	1208,302
632,62	1163,246
632,82	1253,357
633,02	1286,124
633,22	1187,822
633,42	1165,294
633,62	1214,445
633,81	1177,582
634,01	1234,925
634,21	1269,741
634,41	1193,966
634,61	1236,973
634,80	1230,829
635,00	1271,789
635,20	1202,158
635,40	1136,623
635,60	1193,966
635,80	1230,829
635,99	1208,302
636,19	1185,774
636,39	1177,582
636,59	1171,438
636,79	1286,124
636,98	1173,486
637,18	1214,445
637,38	1148,910
637,58	1206,254
637,78	1193,966
637,97	1175,534
638,17	1132,527
638,37	1232,877
638,57	1130,479
638,77	1269,741
638,96	1200,110
639,16	1224,685
639,36	1236,973
639,56	1193,966
639,76	1183,726
639,95	1193,966
640,15	1253,357
640,35	1175,534
640,55	1226,733
640,75	1277,932
640,94	1200,110
641,14	1210,350
641,34	1208,302
641,54	1202,158
641,73	1304,556
641,93	1222,637
642,13	1230,829
642,33	1212,398
642,53	1202,158
642,72	1183,726
642,92	1214,445
643,12	1216,493
643,32	1142,767
643,51	1232,877
643,71	1165,294
643,91	1275,885
644,11	1116,143
644,30	1204,206
644,50	1214,445
644,70	1247,213
644,90	1265,645
645,09	1255,405
645,29	1284,076
645,49	1175,534
645,69	1150,958
645,88	1187,822
646,08	1132,527
646,28	1245,165
646,48	1138,671
646,67	1218,541
646,87	1153,006
647,07	1265,645
647,26	1236,973
647,46	1157,102
647,66	1165,294
647,86	1161,198
648,05	1210,350
648,25	1284,076
648,45	1138,671
648,65	1120,239
648,84	1177,582
649,04	1148,910
649,24	1216,493
649,43	1198,062
649,63	1183,726
649,83	1208,302
650,03	1191,918
650,22	1216,493
650,42	1189,870
650,62	1288,172
650,81	1157,102
651,01	1224,685
651,21	1212,398
651,40	1230,829
651,60	1161,198
651,80	1257,453
652,00	1212,398
652,19	1247,213
652,39	1253,357
652,59	1212,398
652,78	1157,102
652,98	1224,685
653,18	1222,637
653,37	1230,829
653,57	1185,774
653,77	1216,493
653,96	1191,918
654,16	1232,877
654,36	1155,054
654,55	1103,855
654,75	1255,405
654,95	1130,479
655,14	1226,733
655,34	1210,350
655,54	1232,877
655,73	1218,541
655,93	1257,453
656,13	1189,870
656,32	1241,069
656,52	1249,261
656,72	1196,014
656,91	1204,206
657,11	1202,158
657,31	1253,357
657,50	1226,733
657,70	1210,350
657,90	1175,534
658,09	1218,541
658,29	1132,527
658,49	1200,110
658,68	1198,062
658,88	1183,726
659,07	1216,493
659,27	1265,645
659,47	1153,006
659,66	1243,117
659,86	1142,767
660,06	1193,966
660,25	1249,261
660,45	1206,254
660,64	1249,261
660,84	1212,398
661,04	1224,685
661,23	1196,014
661,43	1173,486
661,63	1155,054
661,82	1222,637
662,02	1183,726
662,21	1236,973
662,41	1288,172
662,61	1214,445
662,80	1257,453
663,00	1193,966
663,19	1216,493
663,39	1282,028
663,59	1161,198
663,78	1216,493
663,98	1282,028
664,17	1288,172
664,37	1198,062
664,57	1204,206
664,76	1185,774
664,96	1173,486
665,15	1220,589
665,35	1134,575
665,55	1232,877
665,74	1175,534
665,94	1259,501
666,13	1083,375
666,33	1304,556
666,53	1136,623
666,72	1271,789
666,92	1124,335
667,11	1169,390
667,31	1187,822
667,50	1210,350
667,70	1150,958
667,90	1189,870
668,09	1157,102
668,29	1196,014
668,48	1183,726
668,68	1243,117
668,87	1183,726
669,07	1142,767
669,26	1159,150
669,46	1204,206
669,66	1196,014
669,85	1128,431
670,05	1208,302
670,24	1208,302
670,44	1218,541
670,63	1216,493
670,83	1206,254
671,02	1169,390
671,22	1107,951
671,42	1163,246
671,61	1155,054
671,81	1226,733
672,00	1140,719
672,20	1222,637
672,39	1245,165
672,59	1228,781
672,78	1204,206
672,98	1243,117
673,17	1175,534
673,37	1210,350
673,56	1239,021
673,76	1212,398
673,95	1171,438
674,15	1198,062
674,34	1220,589
674,54	1165,294
674,73	1216,493
674,93	1222,637
675,13	1245,165
675,32	1210,350
675,52	1136,623
675,71	1208,302
675,91	1218,541
676,10	1257,453
676,30	1196,014
676,49	1236,973
676,69	1218,541
676,88	1122,287
677,08	1161,198
677,27	1181,678
677,47	1226,733
677,66	1204,206
677,86	1214,445
678,05	1181,678
678,24	1236,973
678,44	1200,110
678,63	1200,110
678,83	1228,781
679,02	1146,862
679,22	1325,036
679,41	1279,980
679,61	1193,966
679,80	1259,501
680,00	1159,150
680,19	1206,254
680,39	1200,110
680,58	1243,117
680,78	1224,685
680,97	1304,556
681,17	1171,438
681,36	1224,685
681,56	1114,095
681,75	1200,110
681,94	1257,453
682,14	1175,534
682,33	1187,822
682,53	1116,143
682,72	1138,671
682,92	1126,383
683,11	1245,165
683,31	1232,877
683,50	1171,438
683,69	1171,438
683,89	1218,541
684,08	1226,733
684,28	1271,789
684,47	1171,438
684,67	1249,261
684,86	1236,973
685,06	1191,918
685,25	1241,069
685,44	1249,261
685,64	1249,261
685,83	1171,438
686,03	1288,172
686,22	1275,885
686,42	1247,213
686,61	1167,342
686,80	1175,534
687,00	1134,575
687,19	1142,767
687,39	1200,110
687,58	1224,685
687,77	1318,892
687,97	1200,110
688,16	1296,364
688,36	1253,357
688,55	1224,685
688,74	1267,693
688,94	1282,028
689,13	1224,685
689,33	1193,966
689,52	1161,198
689,71	1134,575
689,91	1228,781
690,10	1136,623
690,30	1187,822
690,49	1234,925
690,68	1200,110
690,88	1171,438
691,07	1214,445
691,27	1257,453
691,46	1298,412
691,65	1185,774
691,85	1218,541
692,04	1236,973
692,23	1261,549
692,43	1296,364
692,62	1171,438
692,82	1169,390
693,01	1239,021
693,20	1148,910
693,40	1255,405
693,59	1189,870
693,78	1187,822
693,98	1230,829
694,17	1241,069
694,36	1163,246
694,56	1159,150
694,75	1279,980
694,94	1222,637
695,14	1191,918
695,33	1263,597
695,53	1259,501
695,72	1218,541
695,91	1265,645
696,11	1243,117
696,30	1249,261
696,49	1226,733
696,69	1249,261
696,88	1236,973
697,07	1257,453
697,27	1198,062
697,46	1247,213
697,65	1296,364
697,85	1222,637
698,04	1204,206
698,23	1212,398
698,43	1251,309
698,62	1310,700
698,81	1236,973
699,01	1185,774
699,20	1218,541
699,39	1202,158
699,58	1200,110
699,78	1187,822
699,97	1318,892
700,16	1155,054
700,36	1245,165
700,55	1124,335
700,74	1271,789
700,94	1177,582
701,13	1243,117
701,32	1185,774
701,52	1153,006
701,71	1234,925
701,90	1148,910
702,09	1181,678
702,29	1239,021
702,48	1216,493
702,67	1222,637
702,87	1271,789
703,06	1185,774
703,25	1253,357
703,44	1218,541
703,64	1212,398
703,83	1165,294
704,02	1261,549
704,22	1253,357
704,41	1245,165
704,60	1128,431
704,79	1271,789
704,99	1196,014
705,18	1136,623
705,37	1239,021
705,56	1185,774
705,76	1159,150
705,95	1228,781
706,14	1193,966
706,33	1085,423
706,53	1146,862
706,72	1222,637
706,91	1167,342
707,11	1140,719
707,30	1081,328
707,49	1198,062
707,68	1267,693
707,88	1183,726
708,07	1243,117
708,26	1220,589
708,45	1179,630
708,64	1191,918
708,84	1218,541
709,03	1191,918
709,22	1193,966
709,41	1185,774
709,61	1116,143
709,80	1224,685
709,99	1177,582
710,18	1253,357
710,38	1212,398
710,57	1239,021
710,76	1202,158
710,95	1257,453
711,14	1153,006
711,34	1196,014
711,53	1138,671
711,72	1193,966
711,91	1239,021
712,11	1148,910
712,30	1128,431
712,49	1167,342
712,68	1142,767
712,87	1142,767
713,07	1124,335
713,26	1226,733
713,45	1193,966
713,64	1232,877
713,83	1218,541
714,03	1140,719
714,22	1216,493
714,41	1220,589
714,60	1179,630
714,79	1212,398
714,99	1187,822
715,18	1218,541
715,37	1165,294
715,56	1212,398
715,75	1220,589
715,94	1245,165
716,14	1146,862
716,33	1206,254
716,52	1214,445
716,71	1206,254
716,90	1150,958
717,10	1218,541
717,29	1202,158
717,48	1185,774
717,67	1241,069
717,86	1234,925
718,05	1255,405
718,24	1163,246
718,44	1202,158
718,63	1255,405
718,82	1228,781
719,01	1161,198
719,20	1212,398
719,39	1251,309
719,59	1193,966
719,78	1187,822
719,97	1196,014
720,16	1253,357
720,35	1185,774
720,54	1206,254
720,73	1230,829
720,93	1159,150
721,12	1271,789
721,31	1183,726
721,50	1196,014
721,69	1265,645
721,88	1122,287
722,07	1265,645
722,27	1212,398
722,46	1193,966
722,65	1247,213
722,84	1177,582
723,03	1216,493
723,22	1144,815
723,41	1169,390
723,60	1214,445
723,79	1198,062
723,99	1177,582
724,18	1155,054
724,37	1177,582
724,56	1183,726
724,75	1159,150
724,94	1126,383
725,13	1167,342
725,32	1265,645
725,51	1114,095
725,71	1210,350
725,90	1181,678
726,09	1136,623
726,28	1161,198
726,47	1169,390
726,66	1181,678
726,85	1202,158
727,04	1183,726
727,23	1161,198
727,42	1142,767
727,61	1249,261
727,81	1220,589
728,00	1212,398
728,19	1267,693
728,38	1214,445
728,57	1179,630
728,76	1161,198
728,95	1245,165
729,14	1239,021
729,33	1169,390
729,52	1148,910
729,71	1173,486
729,90	1200,110
730,09	1196,014
730,28	1124,335
730,48	1232,877
730,67	1204,206
730,86	1288,172
731,05	1155,054
731,24	1183,726
731,43	1216,493
731,62	1163,246
731,81	1220,589
732,00	1218,541
732,19	1312,748
732,38	1202,158
732,57	1183,726
732,76	1087,471
732,95	1247,213
733,14	1210,350
733,33	1224,685
733,52	1142,767
733,71	1228,781
733,90	1073,136
734,09	1253,357
734,28	1163,246
734,47	1204,206
734,66	1177,582
734,85	1220,589
735,04	1155,054
735,23	1138,671
735,42	1148,910
735,61	1142,767
735,81	1173,486
736,00	1136,623
736,19	1169,390
736,38	1165,294
736,57	1128,431
736,76	1263,597
736,95	1120,239
737,14	1167,342
737,33	1140,719
737,52	1134,575
737,71	1241,069
737,90	1179,630
738,09	1185,774
738,28	1210,350
738,47	1265,645
738,66	1157,102
738,85	1220,589
739,04	1142,767
739,22	1193,966
739,41	1153,006
739,60	1222,637
739,79	1165,294
739,98	1247,213
740,17	1116,143
740,36	1169,390
740,55	1122,287
740,74	1249,261
740,93	1181,678
741,12	1228,781
741,31	1189,870
741,50	1255,405
741,69	1185,774
741,88	1228,781
742,07	1134,575
742,26	1255,405
742,45	1181,678
742,64	1138,671
742,83	1234,925
743,02	1193,966
743,21	1224,685
743,40	1189,870
743,59	1216,493
743,78	1128,431
743,97	1148,910
744,16	1191,918
744,34	1112,047
744,53	1232,877
744,72	1140,719
744,91	1208,302
745,10	1163,246
745,29	1241,069
745,48	1210,350
745,67	1159,150
745,86	1273,837
746,05	1216,493
746,24	1138,671
746,43	1163,246
746,62	1290,220
746,81	1169,390
747,00	1185,774
747,18	1167,342
747,37	1189,870
747,56	1243,117
747,75	1144,815
747,94	1148,910
748,13	1196,014
748,32	1161,198
748,51	1161,198
748,70	1255,405
748,89	1196,014
749,08	1255,405
749,26	1175,534
749,45	1126,383
749,64	1181,678
749,83	1212,398
750,02	1216,493
750,21	1263,597
750,40	1239,021
750,59	1218,541
750,78	1220,589
750,96	1214,445
751,15	1191,918
751,34	1146,862
751,53	1210,350
751,72	1181,678
751,91	1177,582
752,10	1269,741
752,29	1171,438
752,47	1193,966
752,66	1179,630
752,85	1204,206
753,04	1234,925
753,23	1257,453
753,42	1224,685
753,61	1269,741
753,80	1179,630
753,98	1282,028
754,17	1191,918
754,36	1159,150
754,55	1167,342
754,74	1175,534
754,93	1216,493
755,12	1177,582
755,30	1109,999
755,49	1208,302
755,68	1146,862
755,87	1210,350
756,06	1150,958
756,25	1165,294
756,43	1232,877
756,62	1136,623
756,81	1222,637
757,00	1216,493
757,19	1146,862
757,38	1157,102
757,56	1181,678
757,75	1173,486
757,94	1189,870
758,13	1241,069
758,32	1144,815
758,51	1196,014
758,69	1232,877
758,88	1144,815
759,07	1236,973
759,26	1247,213
759,45	1251,309
759,63	1153,006
759,82	1142,767
760,01	1236,973
760,20	1210,350
760,39	1173,486
760,57	1169,390
760,76	1236,973
760,95	1191,918
761,14	1167,342
761,33	1198,062
761,51	1183,726
761,70	1163,246
761,89	1218,541
762,08	1150,958
762,27	1202,158
762,45	1128,431
762,64	1241,069
762,83	1265,645
763,02	1204,206
763,21	1218,541
763,39	1181,678
763,58	1171,438
763,77	1214,445
763,96	1105,903
764,14	1171,438
764,33	1142,767
764,52	1175,534
764,71	1198,062
764,89	1253,357
765,08	1239,021
765,27	1183,726
765,46	1245,165
765,65	1218,541
765,83	1163,246
766,02	1177,582
766,21	1220,589
766,40	1263,597
766,58	1206,254
766,77	1198,062
766,96	1136,623
767,15	1181,678
767,33	1210,350
767,52	1245,165
767,71	1153,006
767,90	1224,685
768,08	1183,726
768,27	1230,829
768,46	1132,527
768,64	1191,918
768,83	1191,918
769,02	1159,150
769,21	1181,678
769,39	1187,822
769,58	1241,069
769,77	1169,390
769,96	1200,110
770,14	1294,316
770,33	1206,254
770,52	1298,412
770,70	1304,556
770,89	1214,445
771,08	1157,102
771,27	1155,054
771,45	1134,575
771,64	1159,150
771,83	1187,822
772,01	1236,973
772,20	1103,855
772,39	1316,844
772,57	1269,741
772,76	1329,132
772,95	1220,589
773,14	1218,541
773,32	1146,862
773,51	1169,390
773,70	1153,006
773,88	1204,206
774,07	1144,815
774,26	1253,357
774,44	1232,877
774,63	1083,375
774,82	1163,246
775,00	1259,501
775,19	1331,180
775,38	1142,767
775,56	1165,294
775,75	1224,685
775,94	1210,350
776,12	1157,102
776,31	1179,630
776,50	1191,918
776,68	1198,062
776,87	1189,870
777,06	1183,726
777,24	1138,671
777,43	1204,206
777,62	1212,398
777,80	1165,294
777,99	1212,398
778,18	1134,575
778,36	1212,398
778,55	1212,398
778,74	1179,630
778,92	1177,582
779,11	1218,541
779,29	1171,438
779,48	1230,829
779,67	1271,789
779,85	1155,054
780,04	1220,589
780,23	1220,589
780,41	1210,350
780,60	1216,493
780,79	1144,815
780,97	1155,054
781,16	1183,726
781,34	1249,261
781,53	1271,789
781,72	1202,158
781,90	1236,973
782,09	1153,006
782,28	1245,165
782,46	1249,261
782,65	1167,342
782,83	1226,733
783,02	1196,014
783,21	1099,759
783,39	1228,781
783,58	1191,918
783,76	1142,767
783,95	1171,438
784,14	1222,637
784,32	1126,383
784,51	1273,837
784,69	1228,781
784,88	1224,685
785,06	1255,405
785,25	1140,719
785,44	1185,774
785,62	1191,918
785,81	1251,309
785,99	1165,294
786,18	1134,575
786,37	1224,685
786,55	1226,733
786,74	1226,733
786,92	1216,493
787,11	1220,589
787,29	1251,309
787,48	1208,302
787,67	1277,932
787,85	1267,693
788,04	1099,759
788,22	1169,390
788,41	1335,276
788,59	1157,102
788,78	1183,726
788,96	1193,966
789,15	1232,877
789,34	1220,589
789,52	1255,405
789,71	1148,910
789,89	1279,980
790,08	1210,350
790,26	1296,364
790,45	1251,309
790,63	1183,726
790,82	1136,623
791,00	1173,486
791,19	1206,254
791,38	1169,390
791,56	1187,822
791,75	1175,534
791,93	1222,637
792,12	1169,390
792,30	1148,910
792,49	1196,014
792,67	1134,575
792,86	1169,390
793,04	1241,069
793,23	1236,973
793,41	1220,589
793,60	1232,877
793,78	1187,822
793,97	1282,028
794,15	1179,630
794,34	1198,062
794,52	1275,885
794,71	1296,364
794,89	1259,501
795,08	1265,645
795,26	1083,375
795,45	1263,597
795,63	1177,582
795,82	1177,582
796,00	1177,582
796,19	1196,014
796,37	1191,918
796,56	1183,726
796,74	1212,398
796,93	1177,582
797,11	1261,549
797,30	1165,294
797,48	1173,486
797,67	1177,582
797,85	1208,302
798,04	1189,870
798,22	1208,302
798,41	1253,357
798,59	1177,582
798,77	1228,781
798,96	1185,774
799,14	1241,069
799,33	1126,383
799,51	1159,150
799,70	1200,110
799,88	1277,932
800,07	1150,958
800,25	1206,254
800,44	1230,829
800,62	1261,549
800,80	1239,021
800,99	1296,364
801,17	1208,302
801,36	1183,726
801,54	1245,165
801,73	1247,213
801,91	1196,014
802,10	1257,453
802,28	1153,006
802,46	1265,645
802,65	1275,885
802,83	1255,405
803,02	1255,405
803,20	1210,350
803,39	1245,165
803,57	1224,685
803,75	1179,630
803,94	1183,726
804,12	1216,493
804,31	1202,158
804,49	1232,877
804,67	1171,438
804,86	1257,453
805,04	1114,095
805,23	1175,534
805,41	1159,150
805,59	1212,398
805,78	1155,054
805,96	1204,206
806,15	1226,733
806,33	1173,486
806,51	1214,445
806,70	1251,309
806,88	1226,733
807,07	1251,309
807,25	1239,021
807,43	1130,479
807,62	1216,493
807,80	1155,054
807,99	1193,966
808,17	1142,767
808,35	1282,028
808,54	1204,206
808,72	1208,302
808,90	1290,220
809,09	1232,877
809,27	1212,398
809,46	1224,685
809,64	1204,206
809,82	1341,420
810,01	1165,294
810,19	1279,980
810,37	1198,062
810,56	1249,261
810,74	1175,534
810,92	1236,973
811,11	1296,364
811,29	1196,014
811,48	1183,726
811,66	1157,102
811,84	1214,445
812,03	1273,837
812,21	1320,940
812,39	1261,549
812,58	1163,246
812,76	1304,556
812,94	1132,527
813,13	1282,028
813,31	1226,733
813,49	1265,645
813,68	1279,980
813,86	1261,549
814,04	1185,774
814,23	1193,966
814,41	1220,589
814,59	1128,431
814,78	1230,829
814,96	1255,405
815,14	1239,021
815,33	1239,021
815,51	1253,357
815,69	1230,829
815,87	1144,815
816,06	1214,445
816,24	1218,541
816,42	1210,350
816,61	1175,534
816,79	1257,453
816,97	1245,165
817,16	1206,254
817,34	1171,438
817,52	1173,486
817,70	1230,829
817,89	1249,261
818,07	1236,973
818,25	1214,445
818,44	1234,925
818,62	1224,685
818,80	1193,966
818,98	1234,925
819,17	1257,453
819,35	1202,158
819,53	1261,549
819,72	1245,165
819,90	1179,630
820,08	1210,350
820,26	1187,822
820,45	1118,191
820,63	1255,405
820,81	1185,774
820,99	1226,733
821,18	1298,412
821,36	1171,438
821,54	1265,645
821,73	1202,158
821,91	1208,302
822,09	1216,493
822,27	1269,741
822,46	1259,501
822,64	1228,781
822,82	1251,309
823,00	1339,372
823,19	1365,995
823,37	1282,028
823,55	1208,302
823,73	1226,733
823,91	1173,486
824,10	1210,350
824,28	1294,316
824,46	1247,213
824,64	1185,774
824,83	1304,556
825,01	1230,829
825,19	1163,246
825,37	1193,966
825,56	1265,645
825,74	1150,958
825,92	1206,254
826,10	1271,789
826,28	1269,741
826,47	1302,508
826,65	1284,076
826,83	1236,973
827,01	1275,885
827,19	1329,132
827,38	1259,501
827,56	1284,076
827,74	1191,918
827,92	1198,062
828,10	1241,069
828,29	1232,877
828,47	1193,966
828,65	1230,829
828,83	1198,062
829,01	1294,316
829,20	1294,316
829,38	1189,870
829,56	1169,390
829,74	1236,973
829,92	1284,076
830,10	1191,918
830,29	1236,973
830,47	1236,973
830,65	1208,302
830,83	1337,324
831,01	1220,589
831,20	1230,829
831,38	1222,637
831,56	1212,398
831,74	1267,693
831,92	1279,980
832,10	1189,870
832,29	1226,733
832,47	1249,261
832,65	1177,582
832,83	1241,069
833,01	1267,693
833,19	1187,822
833,37	1179,630
833,56	1220,589
833,74	1224,685
833,92	1243,117
834,10	1200,110
834,28	1296,364
834,46	1277,932
834,64	1189,870
834,83	1236,973
835,01	1314,796
835,19	1302,508
835,37	1220,589
835,55	1177,582
835,73	1214,445
835,91	1210,350
836,09	1310,700
836,28	1220,589
836,46	1177,582
836,64	1210,350
836,82	1234,925
837,00	1259,501
837,18	1210,350
837,36	1312,748
837,54	1306,604
837,72	1320,940
837,91	1263,597
838,09	1290,220
838,27	1247,213
838,45	1177,582
838,63	1271,789
838,81	1245,165
838,99	1206,254
839,17	1193,966
839,35	1402,859
839,53	1251,309
839,72	1370,091
839,90	1255,405
840,08	1191,918
840,26	1247,213
840,44	1263,597
840,62	1189,870
840,80	1357,803
840,98	1312,748
841,16	1355,755
841,34	1193,966
841,52	1255,405
841,70	1251,309
841,89	1204,206
842,07	1232,877
842,25	1320,940
842,43	1241,069
842,61	1261,549
842,79	1265,645
842,97	1208,302
843,15	1239,021
843,33	1173,486
843,51	1171,438
843,69	1234,925
843,87	1249,261
844,05	1284,076
844,23	1308,652
844,41	1249,261
844,59	1243,117
844,77	1314,796
844,95	1155,054
845,13	1230,829
845,31	1187,822
845,50	1259,501
845,68	1290,220
845,86	1167,342
846,04	1257,453
846,22	1218,541
846,40	1263,597
846,58	1247,213
846,76	1214,445
846,94	1292,268
847,12	1173,486
847,30	1189,870
847,48	1232,877
847,66	1261,549
847,84	1284,076
848,02	1200,110
848,20	1277,932
848,38	1257,453
848,56	1239,021
848,74	1208,302
848,92	1226,733
849,10	1241,069
849,28	1269,741
849,46	1329,132
849,64	1239,021
849,82	1316,844
850,00	1339,372
850,18	1271,789
850,36	1218,541
850,54	1263,597
850,72	1222,637
850,90	1308,652
851,08	1236,973
851,26	1249,261
851,44	1245,165
851,62	1239,021
851,80	1245,165
851,98	1271,789
852,16	1279,980
852,34	1167,342
852,52	1255,405
852,70	1296,364
852,87	1171,438
853,05	1224,685
853,23	1187,822
853,41	1359,851
853,59	1392,619
853,77	1282,028
853,95	1320,940
854,13	1241,069
854,31	1239,021
854,49	1312,748
854,67	1196,014
854,85	1167,342
855,03	1290,220
855,21	1245,165
855,39	1261,549
855,57	1142,767
855,75	1198,062
855,93	1253,357
856,11	1171,438
856,28	1210,350
856,46	1206,254
856,64	1257,453
856,82	1265,645
857,00	1230,829
857,18	1204,206
857,36	1318,892
857,54	1189,870
857,72	1243,117
857,90	1185,774
858,08	1292,268
858,26	1263,597
858,44	1265,645
858,61	1284,076
858,79	1183,726
858,97	1249,261
859,15	1306,604
859,33	1259,501
859,51	1282,028
859,69	1232,877
859,87	1226,733
860,05	1189,870
860,23	1269,741
860,40	1251,309
860,58	1265,645
860,76	1191,918
860,94	1308,652
861,12	1263,597
861,30	1198,062
861,48	1193,966
861,66	1208,302
861,84	1191,918
862,01	1259,501
862,19	1159,150
862,37	1234,925
862,55	1251,309
862,73	1249,261
862,91	1183,726
863,09	1216,493
863,27	1310,700
863,44	1265,645
863,62	1275,885
863,80	1351,659
863,98	1224,685
864,16	1273,837
864,34	1228,781
864,52	1259,501
864,69	1230,829
864,87	1210,350
865,05	1251,309
865,23	1239,021
865,41	1216,493
865,59	1218,541
865,76	1327,084
865,94	1279,980
866,12	1179,630
866,30	1325,036
866,48	1284,076
866,66	1140,719
866,83	1236,973
867,01	1214,445
867,19	1245,165
867,37	1331,180
867,55	1206,254
867,73	1249,261
867,90	1198,062
868,08	1355,755
868,26	1232,877
868,44	1198,062
868,62	1261,549
868,79	1322,988
868,97	1220,589
869,15	1175,534
869,33	1247,213
869,51	1239,021
869,69	1206,254
869,86	1218,541
870,04	1267,693
870,22	1265,645
870,40	1269,741
870,57	1134,575
870,75	1181,678
870,93	1216,493
871,11	1267,693
871,29	1175,534
871,46	1249,261
871,64	1206,254
871,82	1214,445
872,00	1300,460
872,18	1193,966
872,35	1241,069
872,53	1216,493
872,71	1263,597
872,89	1282,028
873,06	1239,021
873,24	1196,014
873,42	1292,268
873,60	1361,899
873,77	1316,844
873,95	1220,589
874,13	1279,980
874,31	1273,837
874,49	1193,966
874,66	1247,213
874,84	1257,453
875,02	1218,541
875,20	1261,549
875,37	1282,028
875,55	1316,844
875,73	1236,973
875,91	1269,741
876,08	1202,158
876,26	1298,412
876,44	1251,309
876,61	1234,925
876,79	1322,988
876,97	1230,829
877,15	1183,726
877,32	1228,781
877,50	1222,637
877,68	1282,028
877,86	1157,102
878,03	1331,180
878,21	1245,165
878,39	1183,726
878,56	1212,398
878,74	1269,741
878,92	1226,733
879,10	1267,693
879,27	1222,637
879,45	1204,206
879,63	1251,309
879,80	1216,493
879,98	1228,781
880,16	1265,645
880,34	1316,844
880,51	1234,925
880,69	1198,062
880,87	1361,899
881,04	1314,796
881,22	1239,021
881,40	1337,324
881,57	1296,364
881,75	1284,076
881,93	1300,460
882,10	1257,453
882,28	1322,988
882,46	1204,206
882,63	1259,501
882,81	1191,918
882,99	1202,158
883,16	1198,062
883,34	1292,268
883,52	1282,028
883,69	1234,925
883,87	1216,493
884,05	1325,036
884,22	1331,180
884,40	1210,350
884,58	1183,726
884,75	1286,124
884,93	1216,493
885,11	1282,028
885,28	1189,870
885,46	1273,837
885,64	1212,398
885,81	1193,966
885,99	1241,069
886,17	1214,445
886,34	1234,925
886,52	1351,659
886,70	1259,501
886,87	1243,117
887,05	1249,261
887,22	1279,980
887,40	1302,508
887,58	1187,822
887,75	1212,398
887,93	1275,885
888,11	1304,556
888,28	1243,117
888,46	1230,829
888,63	1169,390
888,81	1204,206
888,99	1341,420
889,16	1284,076
889,34	1204,206
889,51	1275,885
889,69	1343,468
889,87	1230,829
890,04	1259,501
890,22	1191,918
890,39	1230,829
890,57	1249,261
890,75	1185,774
890,92	1296,364
891,10	1224,685
891,27	1261,549
891,45	1275,885
891,63	1193,966
891,80	1286,124
891,98	1226,733
892,15	1202,158
892,33	1288,172
892,51	1239,021
892,68	1290,220
892,86	1259,501
893,03	1327,084
893,21	1257,453
893,38	1282,028
893,56	1277,932
893,74	1241,069
893,91	1198,062
894,09	1228,781
894,26	1273,837
894,44	1234,925
894,61	1220,589
894,79	1171,438
894,96	1241,069
895,14	1275,885
895,32	1284,076
895,49	1208,302
895,67	1239,021
895,84	1144,815
896,02	1271,789
896,19	1263,597
896,37	1193,966
896,54	1259,501
896,72	1269,741
896,89	1230,829
897,07	1370,091
897,25	1273,837
897,42	1294,316
897,60	1239,021
897,77	1163,246
897,95	1198,062
898,12	1304,556
898,30	1290,220
898,47	1210,350
898,65	1167,342
898,82	1216,493
899,00	1302,508
899,17	1279,980
899,35	1273,837
899,52	1316,844
899,70	1273,837
899,87	1259,501
900,05	1159,150
900,22	1275,885
900,40	1273,837
900,57	1239,021
900,75	1349,611
900,92	1286,124
901,10	1175,534
901,27	1255,405
901,45	1189,870
901,62	1277,932
901,80	1175,534
901,97	1239,021
902,15	1167,342
902,32	1259,501
902,50	1243,117
902,67	1226,733
902,85	1306,604
903,02	1222,637
903,20	1253,357
903,37	1189,870
903,54	1257,453
903,72	1335,276
903,89	1239,021
904,07	1214,445
904,24	1261,549
904,42	1232,877
904,59	1261,549
904,77	1284,076
904,94	1189,870
905,12	1333,228
905,29	1196,014
905,47	1224,685
905,64	1212,398
905,81	1224,685
905,99	1206,254
906,16	1277,932
906,34	1232,877
906,51	1222,637
906,69	1239,021
906,86	1247,213
907,03	1218,541
907,21	1245,165
907,38	1335,276
907,56	1265,645
907,73	1232,877
907,91	1214,445
908,08	1286,124
908,25	1325,036
908,43	1325,036
908,60	1320,940
908,78	1212,398
908,95	1247,213
909,13	1243,117
909,30	1361,899
909,47	1257,453
909,65	1263,597
909,82	1239,021
910,00	1255,405
910,17	1304,556
910,34	1320,940
910,52	1253,357
910,69	1165,294
910,87	1183,726
911,04	1218,541
911,21	1265,645
911,39	1228,781
911,56	1261,549
911,73	1269,741
911,91	1163,246
912,08	1261,549
912,26	1312,748
912,43	1374,187
912,60	1222,637
912,78	1232,877
912,95	1277,932
913,13	1269,741
913,30	1288,172
913,47	1255,405
913,65	1329,132
913,82	1279,980
913,99	1253,357
914,17	1302,508
914,34	1255,405
914,51	1206,254
914,69	1263,597
914,86	1226,733
915,03	1279,980
915,21	1228,781
915,38	1282,028
915,56	1333,228
915,73	1241,069
915,90	1169,390
916,08	1210,350
916,25	1361,899
916,42	1232,877
916,60	1251,309
916,77	1263,597
916,94	1275,885
917,12	1157,102
917,29	1224,685
917,46	1255,405
917,64	1263,597
917,81	1261,549
917,98	1253,357
918,16	1212,398
918,33	1271,789
918,50	1259,501
918,67	1259,501
918,85	1249,261
919,02	1255,405
919,19	1206,254
919,37	1322,988
919,54	1138,671
919,71	1200,110
919,89	1249,261
920,06	1372,139
920,23	1300,460
920,41	1228,781
920,58	1200,110
920,75	1234,925
920,92	1247,213
921,10	1208,302
921,27	1286,124
921,44	1245,165
921,62	1271,789
921,79	1312,748
921,96	1290,220
922,13	1343,468
922,31	1284,076
922,48	1206,254
922,65	1251,309
922,82	1253,357
923,00	1267,693
923,17	1347,563
923,34	1273,837
923,52	1290,220
923,69	1310,700
923,86	1316,844
924,03	1286,124
924,21	1210,350
924,38	1191,918
924,55	1144,815
924,72	1218,541
924,90	1257,453
925,07	1308,652
925,24	1267,693
925,41	1286,124
925,59	1322,988
925,76	1183,726
925,93	1271,789
926,10	1257,453
926,28	1232,877
926,45	1298,412
926,62	1191,918
926,79	1320,940
926,96	1216,493
927,14	1245,165
927,31	1216,493
927,48	1220,589
927,65	1327,084
927,83	1351,659
928,00	1273,837
928,17	1185,774
928,34	1175,534
928,51	1226,733
928,69	1261,549
928,86	1239,021
929,03	1236,973
929,20	1251,309
929,37	1208,302
929,55	1284,076
929,72	1243,117
929,89	1269,741
930,06	1226,733
930,23	1304,556
930,41	1304,556
930,58	1251,309
930,75	1290,220
930,92	1265,645
931,09	1218,541
931,27	1271,789
931,44	1282,028
931,61	1222,637
931,78	1177,582
931,95	1239,021
932,12	1214,445
932,30	1216,493
932,47	1224,685
932,64	1294,316
932,81	1230,829
932,98	1265,645
933,16	1296,364
933,33	1288,172
933,50	1218,541
933,67	1191,918
933,84	1208,302
934,01	1241,069
934,18	1284,076
934,36	1263,597
934,53	1322,988
934,70	1275,885
934,87	1212,398
935,04	1136,623
935,21	1204,206
935,38	1171,438
935,56	1325,036
935,73	1261,549
935,90	1279,980
936,07	1183,726
936,24	1216,493
936,41	1230,829
936,58	1335,276
936,76	1226,733
936,93	1314,796
937,10	1198,062
937,27	1259,501
937,44	1187,822
937,61	1198,062
937,78	1236,973
937,95	1288,172
938,13	1241,069
938,30	1204,206
938,47	1251,309
938,64	1191,918
938,81	1234,925
938,98	1249,261
939,15	1226,733
939,32	1259,501
939,49	1214,445
939,66	1181,678
939,84	1214,445
940,01	1179,630
940,18	1239,021
940,35	1218,541
940,52	1282,028
940,69	1159,150
940,86	1304,556
941,03	1236,973
941,20	1173,486
941,37	1187,822
941,54	1314,796
941,71	1339,372
941,89	1259,501
942,06	1286,124
942,23	1253,357
942,40	1337,324
942,57	1185,774
942,74	1177,582
942,91	1284,076
943,08	1228,781
943,25	1273,837
943,42	1230,829
943,59	1269,741
943,76	1132,527
943,93	1214,445
944,10	1202,158
944,27	1284,076
944,44	1247,213
944,61	1257,453
944,79	1261,549
944,96	1144,815
945,13	1335,276
945,30	1292,268
945,47	1193,966
945,64	1218,541
945,81	1148,910
945,98	1247,213
946,15	1187,822
946,32	1236,973
946,49	1218,541
946,66	1241,069
946,83	1177,582
947,00	1247,213
947,17	1306,604
947,34	1214,445
947,51	1249,261
947,68	1183,726
947,85	1261,549
948,02	1220,589
948,19	1126,383
948,36	1275,885
948,53	1163,246
948,70	1142,767
948,87	1196,014
949,04	1265,645
949,21	1226,733
949,38	1212,398
949,55	1279,980
949,72	1177,582
949,89	1257,453
950,06	1296,364
950,23	1220,589
950,40	1138,671
950,57	1286,124
950,74	1224,685
950,91	1202,158
951,08	1255,405
951,25	1179,630
951,42	1177,582
951,59	1253,357
951,76	1220,589
951,93	1161,198
952,10	1204,206
952,27	1230,829
952,44	1245,165
952,61	1226,733
952,77	1253,357
952,94	1218,541
953,11	1181,678
953,28	1232,877
953,45	1196,014
953,62	1214,445
953,79	1216,493
953,96	1234,925
954,13	1228,781
954,30	1224,685
954,47	1175,534
954,64	1218,541
954,81	1259,501
954,98	1234,925
955,15	1169,390
955,32	1210,350
955,49	1251,309
955,65	1175,534
955,82	1214,445
955,99	1243,117
956,16	1214,445
956,33	1265,645
956,50	1206,254
956,67	1234,925
956,84	1310,700
957,01	1247,213
957,18	1193,966
957,35	1200,110
957,52	1245,165
957,68	1208,302
957,85	1173,486
958,02	1253,357
958,19	1124,335
958,36	1150,958
958,53	1245,165
958,70	1257,453
958,87	1179,630
959,04	1136,623
959,21	1185,774
959,37	1234,925
959,54	1206,254
959,71	1165,294
959,88	1173,486
960,05	1169,390
960,22	1204,206
960,39	1216,493
960,56	1253,357
960,72	1196,014
960,89	1292,268
961,06	1191,918
961,23	1230,829
961,40	1331,180
961,57	1224,685
961,74	1241,069
961,90	1245,165
962,07	1212,398
962,24	1208,302
962,41	1282,028
962,58	1210,350
962,75	1218,541
962,92	1204,206
963,08	1257,453
963,25	1196,014
963,42	1286,124
963,59	1167,342
963,76	1157,102
963,93	1271,789
964,10	1185,774
964,26	1288,172
964,43	1226,733
964,60	1214,445
964,77	1200,110
964,94	1208,302
965,10	1183,726
965,27	1118,191
965,44	1171,438
965,61	1165,294
965,78	1316,844
965,95	1253,357
966,11	1249,261
966,28	1269,741
966,45	1185,774
966,62	1181,678
966,79	1261,549
966,95	1183,726
967,12	1247,213
967,29	1193,966
967,46	1232,877
967,63	1243,117
967,79	1226,733
967,96	1243,117
968,13	1243,117
968,30	1247,213
968,47	1075,184
968,63	1187,822
968,80	1230,829
968,97	1214,445
969,14	1282,028
969,31	1189,870
969,47	1239,021
969,64	1249,261
969,81	1220,589
969,98	1189,870
970,14	1198,062
970,31	1148,910
970,48	1296,364
970,65	1224,685
970,81	1265,645
970,98	1226,733
971,15	1271,789
971,32	1208,302
971,48	1177,582
971,65	1265,645
971,82	1226,733
971,99	1241,069
972,15	1169,390
972,32	1175,534
972,49	1222,637
972,66	1214,445
972,82	1243,117
972,99	1198,062
973,16	1329,132
973,33	1236,973
973,49	1304,556
973,66	1173,486
973,83	1304,556
974,00	1169,390
974,16	1171,438
974,33	1234,925
974,50	1273,837
974,67	1148,910
974,83	1245,165
975,00	1230,829
975,17	1261,549
975,33	1218,541
975,50	1284,076
975,67	1236,973
975,84	1177,582
976,00	1236,973
976,17	1286,124
976,34	1220,589
976,50	1251,309
976,67	1175,534
976,84	1298,412
977,00	1185,774
977,17	1210,350
977,34	1224,685
977,50	1230,829
977,67	1247,213
977,84	1196,014
978,01	1236,973
978,17	1417,194
978,34	1261,549
978,51	1271,789
978,67	1183,726
978,84	1150,958
979,01	1318,892
979,17	1265,645
979,34	1136,623
979,51	1214,445
979,67	1208,302
979,84	1306,604
980,01	1302,508
980,17	1122,287
980,34	1204,206
980,51	1241,069
980,67	1191,918
980,84	1230,829
981,01	1255,405
981,17	1222,637
981,34	1406,955
981,50	1175,534
981,67	1181,678
981,84	1318,892
982,00	1292,268
982,17	1265,645
982,34	1150,958
982,50	1355,755
982,67	1153,006
982,84	1296,364
983,00	1245,165
983,17	1200,110
983,33	1255,405
983,50	1292,268
983,67	1300,460
983,83	1193,966
984,00	1296,364
984,17	1286,124
984,33	1286,124
984,50	1163,246
984,66	1247,213
984,83	1208,302
985,00	1249,261
985,16	1286,124
985,33	1222,637
985,49	1306,604
985,66	1226,733
985,83	1304,556
985,99	1134,575
986,16	1310,700
986,32	1236,973
986,49	1288,172
986,66	1224,685
986,82	1271,789
986,99	1159,150
987,15	1226,733
987,32	1304,556
987,49	1220,589
987,65	1220,589
987,82	1292,268
987,98	1183,726
988,15	1275,885
988,31	1259,501
988,48	1312,748
988,65	1206,254
988,81	1179,630
988,98	1239,021
989,14	1153,006
989,31	1292,268
989,47	1279,980
989,64	1269,741
989,80	1200,110
989,97	1257,453
990,14	1306,604
990,30	1263,597
990,47	1167,342
990,63	1279,980
990,80	1185,774
990,96	1351,659
991,13	1275,885
991,29	1222,637
991,46	1325,036
991,62	1271,789
991,79	1189,870
991,95	1312,748
992,12	1284,076
992,29	1316,844
992,45	1144,815
992,62	1263,597
992,78	1261,549
992,95	1304,556
993,11	1228,781
993,28	1259,501
993,44	1234,925
993,61	1241,069
993,77	1239,021
993,94	1261,549
994,10	1357,803
994,27	1222,637
994,43	1204,206
994,60	1273,837
994,76	1267,693
994,93	1271,789
995,09	1331,180
995,26	1302,508
995,42	1165,294
995,59	1265,645
995,75	1310,700
995,92	1279,980
996,08	1269,741
996,25	1288,172
996,41	1251,309
996,58	1351,659
996,74	1230,829
996,91	1255,405
997,07	1292,268
997,23	1236,973
997,40	1249,261
997,56	1275,885
997,73	1365,995
997,89	1222,637
998,06	1206,254
998,22	1322,988
998,39	1224,685
998,55	1208,302
998,72	1249,261
998,88	1339,372
999,05	1255,405
999,21	1204,206
999,37	1316,844
999,54	1277,932
999,70	1239,021
999,87	1208,302
1000,03	1222,637
1000,20	1206,254
1000,36	1370,091
1000,52	1267,693
1000,69	1382,379
1000,85	1257,453
1001,02	1345,515
1001,18	1253,357
1001,35	1279,980
1001,51	1253,357
1001,67	1339,372
1001,84	1306,604
1002,00	1206,254
1002,17	1265,645
1002,33	1284,076
1002,50	1263,597
1002,66	1306,604
1002,82	1224,685
1002,99	1204,206
1003,15	1298,412
1003,32	1257,453
1003,48	1222,637
1003,64	1251,309
1003,81	1294,316
1003,97	1335,276
1004,14	1314,796
1004,30	1228,781
1004,46	1308,652
1004,63	1282,028
1004,79	1142,767
1004,95	1263,597
1005,12	1277,932
1005,28	1296,364
1005,45	1228,781
1005,61	1208,302
1005,77	1314,796
1005,94	1327,084
1006,10	1200,110
1006,26	1271,789
1006,43	1263,597
1006,59	1255,405
1006,76	1267,693
1006,92	1267,693
1007,08	1335,276
1007,25	1265,645
1007,41	1198,062
1007,57	1245,165
1007,74	1282,028
1007,90	1300,460
1008,06	1212,398
1008,23	1159,150
1008,39	1325,036
1008,55	1308,652
1008,72	1249,261
1008,88	1329,132
1009,04	1273,837
1009,21	1318,892
1009,37	1277,932
1009,53	1239,021
1009,70	1271,789
1009,86	1298,412
1010,02	1232,877
1010,19	1212,398
1010,35	1144,815
1010,51	1277,932
1010,68	1267,693
1010,84	1292,268
1011,00	1302,508
1011,17	1298,412
1011,33	1255,405
1011,49	1263,597
1011,66	1288,172
1011,82	1226,733
1011,98	1320,940
1012,14	1282,028
1012,31	1269,741
1012,47	1286,124
1012,63	1296,364
1012,80	1275,885
1012,96	1249,261
1013,12	1304,556
1013,29	1302,508
1013,45	1236,973
1013,61	1183,726
1013,77	1361,899
1013,94	1187,822
1014,10	1206,254
1014,26	1210,350
1014,43	1361,899
1014,59	1282,028
1014,75	1265,645
1014,91	1351,659
1015,08	1232,877
1015,24	1269,741
1015,40	1329,132
1015,56	1296,364
1015,73	1183,726
1015,89	1214,445
1016,05	1202,158
1016,21	1198,062
1016,38	1251,309
1016,54	1271,789
1016,70	1230,829
1016,86	1251,309
1017,03	1196,014
1017,19	1263,597
1017,35	1253,357
1017,51	1273,837
1017,68	1267,693
1017,84	1275,885
1018,00	1183,726
1018,16	1247,213
1018,33	1271,789
1018,49	1255,405
1018,65	1331,180
1018,81	1224,685
1018,97	1314,796
1019,14	1312,748
1019,30	1372,139
1019,46	1286,124
1019,62	1259,501
1019,79	1230,829
1019,95	1214,445
1020,11	1202,158
1020,27	1226,733
1020,43	1228,781
1020,60	1230,829
1020,76	1222,637
1020,92	1263,597
1021,08	1218,541
1021,24	1259,501
1021,41	1249,261
1021,57	1286,124
1021,73	1210,350
1021,89	1228,781
1022,05	1320,940
1022,21	1210,350
1022,38	1206,254
1022,54	1228,781
1022,70	1134,575
1022,86	1181,678
1023,02	1232,877
1023,19	1269,741
1023,35	1247,213
1023,51	1204,206
1023,67	1193,966
1023,83	1314,796
1023,99	1216,493
1024,16	1224,685
1024,32	1232,877
1024,48	1318,892
1024,64	1185,774
1024,80	1255,405
1024,96	1224,685
1025,12	1290,220
1025,29	1202,158
1025,45	1200,110
1025,61	1169,390
1025,77	1232,877
1025,93	1279,980
1026,09	1259,501
1026,26	1251,309
1026,42	1216,493
1026,58	1157,102
1026,74	1187,822
1026,90	1134,575
1027,06	1253,357
1027,22	1247,213
1027,38	1161,198
1027,55	1214,445
1027,71	1286,124
1027,87	1294,316
1028,03	1210,350
1028,19	1210,350
1028,35	1191,918
1028,51	1249,261
1028,67	1179,630
1028,83	1236,973
1029,00	1249,261
1029,16	1183,726
1029,32	1273,837
1029,48	1136,623
1029,64	1183,726
1029,80	1208,302
1029,96	1243,117
1030,12	1206,254
1030,28	1267,693
1030,44	1273,837
1030,61	1300,460
1030,77	1243,117
1030,93	1259,501
1031,09	1161,198
1031,25	1196,014
1031,41	1269,741
1031,57	1153,006
1031,73	1200,110
1031,89	1165,294
1032,05	1204,206
1032,21	1175,534
1032,37	1216,493
1032,53	1187,822
1032,69	1290,220
1032,86	1136,623
1033,02	1210,350
1033,18	1189,870
1033,34	1173,486
1033,50	1253,357
1033,66	1226,733
1033,82	1222,637
1033,98	1259,501
1034,14	1148,910
1034,30	1150,958
1034,46	1234,925
1034,62	1185,774
1034,78	1253,357
1034,94	1220,589
1035,10	1273,837
1035,26	1261,549
1035,42	1271,789
1035,58	1277,932
1035,74	1196,014
1035,90	1230,829
1036,06	1204,206
1036,22	1196,014
1036,38	1243,117
1036,54	1179,630
1036,70	1271,789
1036,86	1210,350
1037,02	1208,302
1037,18	1216,493
1037,34	1126,383
1037,50	1265,645
1037,66	1275,885
1037,82	1163,246
1037,98	1286,124
1038,14	1200,110
1038,30	1296,364
1038,46	1214,445
1038,62	1134,575
1038,78	1241,069
1038,94	1193,966
1039,10	1232,877
1039,26	1150,958
1039,42	1247,213
1039,58	1146,862
1039,74	1200,110
1039,90	1193,966
1040,06	1230,829
>>>>>End Spectral Data<<<<<
