SpectraSuite Data File
++++++++++++++++++++++++++++++++++++
Date: Tue Jan 31 18:56:48 EET 2017
User: optolab
Dark Spectrum Present: Yes
Reference Spectrum Present: Yes
Number of Sampled Component Spectra: 1
Spectrometers: USB4C02475
Integration Time (usec): 100000 (USB4C02475)
Spectra Averaged: 1 (USB4C02475)
Boxcar Smoothing: 0 (USB4C02475)
Correct for Electrical Dark: No (USB4C02475)
Strobe/Lamp Enabled: No (USB4C02475)
Correct for Detector Non-linearity: No (USB4C02475)
Correct for Stray Light: No (USB4C02475)
Number of Pixels in Processed Spectrum: 3648
>>>>>Begin Processed Spectral Data<<<<<
344,91	246,154
345,13	246,154
345,35	246,154
345,57	0,000
345,79	166,667
346,00	120,000
346,22	-136,111
346,44	592,308
346,66	850,000
346,87	1183,333
347,09	-44,444
347,31	-1566,667
347,53	-283,333
347,74	30,769
347,96	214,286
348,18	866,667
348,40	-85,714
348,61	182,857
348,83	112,195
349,05	41,071
349,27	305,263
349,48	75,000
349,70	494,118
349,92	51,220
350,14	611,111
350,35	146,341
350,57	74,286
350,79	223,529
351,01	515,385
351,22	662,500
351,44	-366,667
351,66	476,923
351,87	26,923
352,09	160,606
352,31	325,000
352,53	180,000
352,74	152,381
352,96	95,349
353,18	150,000
353,40	147,826
353,61	158,333
353,83	233,333
354,05	81,818
354,26	225,000
354,48	-400,000
354,70	-46,341
354,92	54,545
355,13	58,824
355,35	0,000
355,57	119,444
355,78	64,706
356,00	88,235
356,22	977,778
356,44	107,692
356,65	130,303
356,87	-78,571
357,09	260,000
357,30	41,270
357,52	89,286
357,74	-3800,000
357,95	680,000
358,17	300,000
358,39	185,294
358,60	620,000
358,82	352,941
359,04	37,500
359,26	118,750
359,47	182,609
359,69	-0,000
359,91	165,385
360,12	500,000
360,34	117,476
360,56	93,103
360,77	728,571
360,99	48,077
361,21	75,000
361,42	37,500
361,64	161,538
361,86	172,917
362,07	38,462
362,29	66,176
362,51	180,769
362,72	24,324
362,94	361,905
363,16	425,000
363,37	16,129
363,59	158,621
363,81	-216,667
364,02	51,765
364,24	169,565
364,46	197,297
364,67	106,667
364,89	155,000
365,11	2100,000
365,32	74,699
365,54	185,714
365,76	79,310
365,97	464,286
366,19	600,000
366,41	215,385
366,62	81,579
366,84	176,316
367,05	115,385
367,27	-55,556
367,49	136,585
367,70	737,500
367,92	93,548
368,14	1200,000
368,35	98,592
368,57	123,077
368,79	-20,588
369,00	0,000
369,22	333,333
369,43	163,636
369,65	77,612
369,87	105,634
370,08	214,286
370,30	200,000
370,51	18,519
370,73	119,231
370,95	76,190
371,16	633,333
371,38	136,364
371,60	-7,692
371,81	237,838
372,03	352,632
372,24	700,000
372,46	25,610
372,68	92,188
372,89	94,286
373,11	4,762
373,32	320,000
373,54	120,000
373,76	144,681
373,97	81,720
374,19	117,568
374,40	127,778
374,62	-633,333
374,84	100,000
375,05	89,189
375,27	69,811
375,48	160,465
375,70	29,545
375,92	104,167
376,13	42,222
376,35	1300,000
376,56	120,000
376,78	16,667
376,99	77,922
377,21	-2700,000
377,43	60,417
377,64	171,053
377,86	93,478
378,07	120,000
378,29	-132,258
378,51	138,462
378,72	42,222
378,94	61,765
379,15	174,286
379,37	153,571
379,58	98,214
379,80	61,538
380,01	162,500
380,23	205,263
380,45	194,231
380,66	122,222
380,88	-700,000
381,09	67,143
381,31	55,072
381,52	105,556
381,74	68,657
381,95	75,610
382,17	73,333
382,39	181,818
382,60	138,462
382,82	174,286
383,03	148,077
383,25	58,974
383,46	136,585
383,68	125,000
383,89	180,000
384,11	81,818
384,32	-437,500
384,54	153,333
384,76	3000,000
384,97	93,827
385,19	83,333
385,40	95,833
385,62	233,333
385,83	78,378
386,05	69,767
386,26	51,351
386,48	88,000
386,69	69,811
386,91	194,118
387,12	133,333
387,34	103,922
387,55	68,182
387,77	161,905
387,98	-828,571
388,20	183,871
388,41	174,359
388,63	160,465
388,84	126,154
389,06	79,487
389,27	146,429
389,49	43,750
389,70	65,476
389,92	56,250
390,13	-65,217
390,35	66,000
390,56	86,364
390,78	93,548
390,99	2433,333
391,21	139,286
391,42	126,230
391,64	-11,111
391,85	41,667
392,07	58,000
392,28	83,750
392,50	96,491
392,71	-37,037
392,93	110,811
393,14	-84,211
393,36	231,250
393,57	103,922
393,79	89,394
394,00	118,182
394,22	63,636
394,43	212,500
394,65	1275,000
394,86	100,000
395,08	64,384
395,29	100,000
395,50	212,500
395,72	105,556
395,93	58,333
396,15	130,986
396,36	105,660
396,58	96,296
396,79	54,545
397,01	101,205
397,22	250,000
397,44	-1240,000
397,65	59,211
397,87	53,846
398,08	32,000
398,29	-12,500
398,51	158,333
398,72	61,000
398,94	58,108
399,15	67,347
399,37	71,795
399,58	251,613
399,80	21,875
400,01	68,116
400,22	87,755
400,44	233,333
400,65	513,333
400,87	52,459
401,08	78,947
401,30	81,000
401,51	53,030
401,72	48,837
401,94	61,290
402,15	42,373
402,37	142,424
402,58	71,111
402,80	44,643
403,01	74,468
403,22	60,000
403,44	96,250
403,65	-236,364
403,87	94,872
404,08	107,692
404,30	89,655
404,51	32,143
404,72	47,561
404,94	94,286
405,15	60,870
405,37	63,889
405,58	113,636
405,79	87,342
406,01	76,636
406,22	-26,829
406,44	33,673
406,65	75,342
406,86	29,293
407,08	191,667
407,29	31,461
407,51	67,347
407,72	40,741
407,93	63,087
408,15	10,811
408,36	65,741
408,58	86,179
408,79	46,237
409,00	88,636
409,22	46,154
409,43	73,034
409,64	22,807
409,86	9,220
410,07	51,852
410,29	32,584
410,50	56,849
410,71	70,930
410,93	39,412
411,14	38,281
411,35	26,724
411,57	40,777
411,78	35,545
412,00	53,672
412,21	54,335
412,42	44,118
412,64	42,130
412,85	31,088
413,06	58,049
413,28	52,571
413,49	48,864
413,70	60,650
413,92	32,584
414,13	42,857
414,34	63,470
414,56	40,323
414,77	40,530
414,98	52,836
415,20	47,558
415,41	43,887
415,63	26,829
415,84	46,626
416,05	37,136
416,27	40,821
416,48	40,500
416,69	45,652
416,91	55,285
417,12	50,801
417,33	43,230
417,55	45,154
417,76	43,725
417,97	45,726
418,19	43,380
418,40	44,646
418,61	48,542
418,83	49,283
419,04	47,967
419,25	60,948
419,46	47,642
419,68	51,926
419,89	46,142
420,10	43,844
420,32	47,402
420,53	42,284
420,74	44,458
420,96	45,361
421,17	46,234
421,38	48,847
421,60	46,482
421,81	53,118
422,02	43,838
422,23	52,354
422,45	43,955
422,66	45,508
422,87	43,584
423,09	46,963
423,30	48,049
423,51	45,830
423,73	47,757
423,94	49,566
424,15	43,655
424,36	47,397
424,58	48,220
424,79	46,744
425,00	49,533
425,22	46,723
425,43	53,803
425,64	50,054
425,85	55,452
426,07	48,863
426,28	52,348
426,49	52,507
426,71	51,188
426,92	53,218
427,13	49,978
427,34	52,970
427,56	52,284
427,77	52,412
427,98	53,386
428,19	50,292
428,41	55,338
428,62	57,828
428,83	57,570
429,04	57,286
429,26	61,354
429,47	59,975
429,68	60,943
429,89	65,300
430,11	64,833
430,32	65,308
430,53	67,422
430,74	68,147
430,96	69,706
431,17	71,190
431,38	74,285
431,59	74,335
431,81	75,522
432,02	79,084
432,23	78,859
432,44	81,502
432,66	81,011
432,87	80,446
433,08	80,813
433,29	79,306
433,51	79,904
433,72	75,532
433,93	75,481
434,14	73,981
434,35	73,518
434,57	72,544
434,78	71,744
434,99	72,485
435,20	71,807
435,42	71,138
435,63	71,250
435,84	69,783
436,05	69,543
436,26	69,476
436,48	69,203
436,69	67,886
436,90	68,465
437,11	68,675
437,32	67,951
437,54	68,500
437,75	71,140
437,96	72,307
438,17	73,037
438,38	74,005
438,60	74,547
438,81	76,738
439,02	77,132
439,23	78,550
439,44	80,834
439,66	80,818
439,87	80,155
440,08	80,757
440,29	80,066
440,50	76,935
440,72	77,109
440,93	76,071
441,14	75,907
441,35	73,852
441,56	72,971
441,77	71,555
441,99	70,579
442,20	70,767
442,41	70,289
442,62	70,984
442,83	70,899
443,04	72,401
443,26	72,089
443,47	72,181
443,68	73,613
443,89	73,823
444,10	74,440
444,31	74,312
444,53	75,575
444,74	75,109
444,95	74,720
445,16	74,598
445,37	72,882
445,58	72,443
445,80	69,416
446,01	68,146
446,22	67,733
446,43	65,748
446,64	63,346
446,85	61,125
447,06	60,550
447,28	60,268
447,49	58,355
447,70	57,795
447,91	60,142
448,12	59,062
448,33	60,704
448,54	61,337
448,76	63,366
448,97	65,265
449,18	66,540
449,39	69,087
449,60	68,549
449,81	70,430
450,02	71,217
450,23	70,849
450,45	72,413
450,66	72,720
450,87	71,600
451,08	70,670
451,29	71,471
451,50	70,891
451,71	70,087
451,92	70,903
452,13	70,132
452,35	69,116
452,56	68,741
452,77	68,105
452,98	68,737
453,19	67,209
453,40	66,383
453,61	65,027
453,82	63,309
454,03	62,676
454,25	60,134
454,46	57,046
454,67	56,577
454,88	54,748
455,09	50,983
455,30	47,910
455,51	45,399
455,72	42,013
455,93	39,061
456,14	36,550
456,35	33,497
456,56	30,909
456,78	27,890
456,99	25,744
457,20	22,933
457,41	21,079
457,62	18,769
457,83	16,840
458,04	15,450
458,25	13,145
458,46	11,974
458,67	10,214
458,88	9,173
459,09	7,586
459,30	6,906
459,51	5,654
459,73	5,208
459,94	4,416
460,15	3,494
460,36	3,199
460,57	2,714
460,78	2,309
460,99	1,643
461,20	1,666
461,41	1,150
461,62	0,997
461,83	0,929
462,04	0,807
462,25	0,462
462,46	0,587
462,67	0,516
462,88	0,458
463,09	0,648
463,30	0,367
463,51	0,346
463,72	0,394
463,93	0,187
464,15	0,316
464,36	0,370
464,57	0,295
464,78	0,428
464,99	0,324
465,20	0,076
465,41	0,229
465,62	0,234
465,83	0,112
466,04	0,106
466,25	0,154
466,46	0,471
466,67	0,222
466,88	0,256
467,09	0,256
467,30	0,165
467,51	0,123
467,72	0,223
467,93	0,149
468,14	0,061
468,35	0,336
468,56	0,183
468,77	0,214
468,98	0,236
469,19	0,173
469,40	0,404
469,61	0,173
469,82	0,041
470,03	0,198
470,24	0,306
470,45	0,265
470,66	0,274
470,87	0,372
471,08	0,261
471,29	0,116
471,50	0,371
471,71	0,071
471,92	0,411
472,13	0,284
472,34	0,288
472,55	0,153
472,76	0,306
472,97	0,139
473,18	0,249
473,39	0,278
473,60	0,446
473,81	0,391
474,01	0,181
474,22	0,387
474,43	0,241
474,64	0,358
474,85	0,337
475,06	0,338
475,27	-0,082
475,48	0,289
475,69	0,256
475,90	0,282
476,11	0,294
476,32	0,263
476,53	0,330
476,74	0,368
476,95	0,188
477,16	0,353
477,37	0,563
477,58	0,266
477,79	0,096
478,00	0,318
478,21	0,446
478,41	0,300
478,62	0,227
478,83	0,163
479,04	0,041
479,25	0,297
479,46	0,182
479,67	0,455
479,88	0,236
480,09	0,258
480,30	0,157
480,51	0,182
480,72	0,334
480,93	0,317
481,14	0,409
481,34	0,452
481,55	0,431
481,76	0,359
481,97	0,292
482,18	0,323
482,39	0,215
482,60	0,424
482,81	0,348
483,02	0,553
483,23	0,179
483,44	0,175
483,65	0,305
483,85	0,114
484,06	0,200
484,27	0,290
484,48	0,265
484,69	0,424
484,90	0,056
485,11	0,142
485,32	0,378
485,53	0,373
485,73	0,289
485,94	0,221
486,15	0,296
486,36	0,098
486,57	0,394
486,78	0,237
486,99	0,216
487,20	0,300
487,41	0,318
487,61	0,418
487,82	0,196
488,03	0,157
488,24	0,177
488,45	0,226
488,66	0,385
488,87	0,288
489,08	0,260
489,28	0,527
489,49	0,351
489,70	0,550
489,91	0,158
490,12	0,327
490,33	0,456
490,54	0,299
490,74	0,303
490,95	0,287
491,16	0,309
491,37	0,235
491,58	0,377
491,79	0,324
492,00	0,276
492,20	0,289
492,41	0,255
492,62	0,214
492,83	0,380
493,04	0,285
493,25	0,232
493,45	0,332
493,66	0,486
493,87	0,555
494,08	0,416
494,29	0,759
494,50	0,661
494,70	0,764
494,91	0,936
495,12	1,005
495,33	1,290
495,54	1,336
495,75	1,457
495,95	1,585
496,16	1,931
496,37	2,367
496,58	2,469
496,79	2,615
496,99	3,139
497,20	3,092
497,41	3,598
497,62	4,202
497,83	4,395
498,04	5,184
498,24	5,476
498,45	6,244
498,66	6,794
498,87	7,703
499,08	8,474
499,28	9,109
499,49	10,176
499,70	10,957
499,91	11,914
500,12	12,759
500,32	14,045
500,53	14,686
500,74	16,122
500,95	16,663
501,15	18,225
501,36	19,521
501,57	20,541
501,78	21,534
501,99	22,692
502,19	24,252
502,40	25,203
502,61	26,639
502,82	28,005
503,02	29,408
503,23	30,652
503,44	31,797
503,65	32,529
503,86	33,941
504,06	35,372
504,27	36,471
504,48	36,707
504,69	37,432
504,89	39,172
505,10	39,422
505,31	40,351
505,52	40,963
505,72	42,333
505,93	42,515
506,14	42,708
506,35	43,833
506,55	44,122
506,76	44,503
506,97	44,923
507,18	45,804
507,38	46,485
507,59	46,621
507,80	46,607
508,01	47,652
508,21	47,721
508,42	48,572
508,63	48,954
508,84	48,720
509,04	49,173
509,25	49,313
509,46	49,782
509,67	49,645
509,87	49,273
510,08	49,225
510,29	49,818
510,49	49,680
510,70	50,213
510,91	49,772
511,12	49,623
511,32	49,583
511,53	50,346
511,74	49,415
511,94	50,238
512,15	50,626
512,36	50,070
512,57	49,830
512,77	50,219
512,98	50,155
513,19	50,269
513,39	49,846
513,60	50,012
513,81	50,055
514,01	50,355
514,22	49,841
514,43	49,839
514,64	50,024
514,84	49,924
515,05	49,883
515,26	50,440
515,46	50,226
515,67	50,577
515,88	50,689
516,08	52,098
516,29	53,021
516,50	53,413
516,70	53,935
516,91	55,711
517,12	56,539
517,32	58,459
517,53	60,792
517,74	61,919
517,95	63,560
518,15	65,656
518,36	67,606
518,57	69,749
518,77	71,736
518,98	74,326
519,19	74,355
519,39	77,648
519,60	79,387
519,80	81,194
520,01	82,248
520,22	83,711
520,42	84,921
520,63	84,296
520,84	84,907
521,04	84,749
521,25	86,558
521,46	86,103
521,66	86,532
521,87	86,591
522,08	86,411
522,28	88,184
522,49	87,074
522,70	86,413
522,90	87,008
523,11	87,230
523,31	86,042
523,52	87,004
523,73	87,119
523,93	86,880
524,14	86,745
524,35	86,079
524,55	87,152
524,76	86,566
524,97	86,238
525,17	85,898
525,38	84,768
525,58	85,673
525,79	85,666
526,00	84,926
526,20	85,042
526,41	86,150
526,61	86,456
526,82	86,376
527,03	85,843
527,23	86,257
527,44	88,470
527,64	87,957
527,85	88,103
528,06	88,127
528,26	89,042
528,47	89,953
528,68	91,245
528,88	90,911
529,09	91,931
529,29	91,724
529,50	92,100
529,70	92,180
529,91	92,097
530,12	93,044
530,32	93,190
530,53	92,988
530,73	94,506
530,94	93,691
531,15	92,456
531,35	93,556
531,56	93,719
531,76	92,945
531,97	93,318
532,17	93,371
532,38	94,374
532,59	93,514
532,79	93,044
533,00	94,454
533,20	94,093
533,41	95,197
533,61	94,425
533,82	95,106
534,03	94,519
534,23	95,969
534,44	95,397
534,64	95,473
534,85	95,797
535,05	97,374
535,26	96,791
535,46	95,857
535,67	96,027
535,88	97,569
536,08	96,104
536,29	96,790
536,49	96,331
536,70	95,812
536,90	95,678
537,11	97,090
537,31	95,818
537,52	96,055
537,72	95,939
537,93	95,695
538,13	95,400
538,34	95,078
538,55	94,872
538,75	95,602
538,96	95,668
539,16	94,878
539,37	95,745
539,57	96,420
539,78	95,479
539,98	95,418
540,19	95,505
540,39	95,405
540,60	95,717
540,80	95,499
541,01	94,667
541,21	95,013
541,42	94,585
541,62	94,653
541,83	93,657
542,03	94,939
542,24	94,925
542,44	93,399
542,65	93,193
542,85	93,528
543,06	93,555
543,26	95,009
543,47	94,194
543,67	93,363
543,88	92,558
544,08	94,953
544,29	92,964
544,49	94,173
544,70	92,873
544,90	91,990
545,11	91,234
545,31	91,579
545,52	92,086
545,72	90,921
545,93	91,661
546,13	91,982
546,34	90,748
546,54	90,377
546,75	90,407
546,95	91,090
547,15	90,403
547,36	90,588
547,56	91,420
547,77	89,904
547,97	91,499
548,18	90,075
548,38	88,963
548,59	88,423
548,79	88,489
549,00	87,918
549,20	88,372
549,41	86,721
549,61	85,923
549,81	86,270
550,02	84,211
550,22	83,031
550,43	82,492
550,63	80,905
550,84	79,672
551,04	77,742
551,25	76,628
551,45	73,942
551,65	73,357
551,86	71,541
552,06	69,715
552,27	67,978
552,47	64,728
552,68	62,507
552,88	60,226
553,08	57,442
553,29	54,176
553,49	50,694
553,70	47,536
553,90	44,408
554,11	42,350
554,31	38,669
554,51	35,829
554,72	33,629
554,92	29,850
555,13	27,935
555,33	25,393
555,53	23,139
555,74	20,620
555,94	18,864
556,15	16,789
556,35	15,114
556,56	13,478
556,76	12,180
556,96	10,637
557,17	9,581
557,37	8,616
557,58	7,489
557,78	6,332
557,98	5,653
558,19	4,908
558,39	4,352
558,59	3,797
558,80	3,477
559,00	2,911
559,21	2,765
559,41	2,383
559,61	2,163
559,82	2,048
560,02	1,609
560,23	1,595
560,43	1,578
560,63	1,220
560,84	1,135
561,04	1,077
561,24	1,094
561,45	0,945
561,65	0,853
561,85	0,642
562,06	0,791
562,26	0,513
562,47	0,489
562,67	0,315
562,87	0,395
563,08	0,488
563,28	0,397
563,48	0,359
563,69	0,493
563,89	0,175
564,09	0,439
564,30	0,453
564,50	0,537
564,70	0,338
564,91	0,239
565,11	0,164
565,31	0,293
565,52	0,266
565,72	0,116
565,92	0,213
566,13	0,329
566,33	0,318
566,53	0,275
566,74	0,312
566,94	0,246
567,14	0,123
567,35	0,078
567,55	0,248
567,75	0,107
567,96	0,336
568,16	0,274
568,36	0,309
568,57	0,187
568,77	0,223
568,97	0,427
569,18	0,201
569,38	0,278
569,58	0,330
569,79	0,223
569,99	0,267
570,19	0,100
570,39	0,140
570,60	0,379
570,80	0,155
571,00	0,232
571,21	0,159
571,41	0,324
571,61	0,246
571,82	0,266
572,02	0,401
572,22	0,274
572,42	0,193
572,63	0,194
572,83	0,410
573,03	0,212
573,24	0,291
573,44	0,277
573,64	0,271
573,84	0,286
574,05	0,424
574,25	0,081
574,45	0,275
574,66	0,192
574,86	0,220
575,06	0,373
575,26	0,214
575,47	0,270
575,67	0,106
575,87	0,117
576,07	0,199
576,28	0,386
576,48	0,066
576,68	0,351
576,88	0,230
577,09	0,339
577,29	0,116
577,49	0,243
577,69	0,336
577,90	0,241
578,10	0,160
578,30	0,354
578,50	0,148
578,71	0,291
578,91	0,351
579,11	0,577
579,31	0,268
579,52	0,167
579,72	0,264
579,92	0,321
580,12	0,469
580,33	0,510
580,53	0,210
580,73	0,380
580,93	0,685
581,13	0,575
581,34	0,547
581,54	0,552
581,74	0,731
581,94	0,872
582,15	0,943
582,35	1,145
582,55	1,289
582,75	1,321
582,95	1,672
583,16	1,764
583,36	2,128
583,56	2,626
583,76	2,745
583,96	3,083
584,17	3,578
584,37	3,870
584,57	4,663
584,77	4,795
584,97	5,451
585,18	6,215
585,38	6,601
585,58	7,460
585,78	8,433
585,98	9,088
586,19	9,935
586,39	10,748
586,59	11,570
586,79	12,711
586,99	13,203
587,20	14,238
587,40	15,361
587,60	16,113
587,80	16,832
588,00	17,822
588,20	18,560
588,41	19,451
588,61	20,421
588,81	21,196
589,01	21,790
589,21	22,626
589,41	23,220
589,62	24,091
589,82	24,907
590,02	25,300
590,22	26,369
590,42	26,862
590,62	26,899
590,83	28,094
591,03	28,669
591,23	29,695
591,43	29,835
591,63	30,322
591,83	30,742
592,03	31,659
592,24	32,170
592,44	32,726
592,64	33,427
592,84	34,560
593,04	35,112
593,24	35,986
593,44	35,737
593,65	36,449
593,85	37,521
594,05	37,621
594,25	38,556
594,45	39,001
594,65	39,150
594,85	39,243
595,06	39,919
595,26	40,284
595,46	40,691
595,66	40,641
595,86	41,510
596,06	41,216
596,26	41,739
596,46	41,871
596,66	42,612
596,87	42,745
597,07	42,299
597,27	42,597
597,47	43,215
597,67	43,217
597,87	43,237
598,07	42,976
598,27	43,062
598,47	43,614
598,67	43,310
598,88	43,486
599,08	44,213
599,28	44,529
599,48	44,080
599,68	44,600
599,88	44,078
600,08	44,997
600,28	44,446
600,48	44,834
600,68	44,853
600,88	45,025
601,09	45,205
601,29	45,232
601,49	45,779
601,69	45,795
601,89	46,082
602,09	45,413
602,29	45,176
602,49	45,310
602,69	46,161
602,89	45,750
603,09	46,040
603,29	45,845
603,49	45,828
603,69	46,472
603,90	46,812
604,10	46,780
604,30	46,897
604,50	47,296
604,70	47,891
604,90	48,247
605,10	48,505
605,30	49,368
605,50	49,877
605,70	50,505
605,90	50,697
606,10	51,473
606,30	52,947
606,50	53,490
606,70	54,832
606,90	55,963
607,10	56,277
607,30	57,859
607,50	58,840
607,70	60,876
607,90	61,696
608,10	62,118
608,30	64,187
608,50	65,214
608,70	66,416
608,90	67,427
609,11	69,514
609,31	70,490
609,51	71,716
609,71	72,128
609,91	73,489
610,11	73,968
610,31	75,527
610,51	76,797
610,71	76,081
610,91	77,349
611,11	77,238
611,31	77,574
611,51	78,649
611,71	78,642
611,91	78,431
612,11	77,402
612,31	77,970
612,51	78,885
612,71	78,797
612,91	78,545
613,11	78,731
613,31	77,700
613,51	77,945
613,71	77,631
613,91	78,070
614,11	79,182
614,31	78,153
614,50	78,725
614,70	78,471
614,90	78,724
615,10	78,212
615,30	78,942
615,50	78,740
615,70	79,554
615,90	78,884
616,10	78,147
616,30	79,962
616,50	80,192
616,70	80,872
616,90	80,716
617,10	79,592
617,30	79,457
617,50	80,433
617,70	79,201
617,90	79,993
618,10	80,080
618,30	79,725
618,50	78,807
618,70	80,114
618,90	80,067
619,10	79,515
619,30	79,442
619,49	80,288
619,69	79,433
619,89	79,737
620,09	79,321
620,29	79,400
620,49	79,129
620,69	79,958
620,89	79,218
621,09	81,312
621,29	80,515
621,49	79,849
621,69	80,960
621,89	80,407
622,09	80,225
622,29	80,765
622,48	80,783
622,68	81,407
622,88	82,287
623,08	81,937
623,28	81,248
623,48	82,010
623,68	82,094
623,88	81,705
624,08	81,686
624,28	81,716
624,48	82,049
624,67	82,031
624,87	82,694
625,07	81,526
625,27	82,924
625,47	82,924
625,67	83,598
625,87	83,365
626,07	83,902
626,27	83,666
626,47	83,936
626,66	83,538
626,86	84,057
627,06	84,345
627,26	84,721
627,46	84,745
627,66	84,468
627,86	85,577
628,06	84,274
628,25	85,508
628,45	85,941
628,65	85,732
628,85	86,659
629,05	86,801
629,25	86,429
629,45	86,482
629,65	86,620
629,84	88,023
630,04	88,378
630,24	88,426
630,44	88,456
630,64	88,759
630,84	89,065
631,04	89,625
631,23	90,508
631,43	89,479
631,63	90,926
631,83	91,242
632,03	91,560
632,23	91,071
632,42	91,067
632,62	90,706
632,82	91,034
633,02	89,804
633,22	90,309
633,42	90,183
633,62	89,600
633,81	88,591
634,01	88,250
634,21	87,713
634,41	85,275
634,61	84,930
634,80	84,017
635,00	82,625
635,20	81,413
635,40	80,319
635,60	78,601
635,80	77,586
635,99	75,366
636,19	73,343
636,39	72,114
636,59	71,142
636,79	69,131
636,98	67,750
637,18	66,192
637,38	63,771
637,58	61,378
637,78	60,064
637,97	58,410
638,17	57,376
638,37	56,162
638,57	54,585
638,77	52,851
638,96	50,509
639,16	49,341
639,36	47,286
639,56	46,582
639,76	44,746
639,95	42,749
640,15	42,012
640,35	39,666
640,55	37,904
640,75	36,531
640,94	34,886
641,14	33,777
641,34	31,488
641,54	29,394
641,73	27,572
641,93	26,818
642,13	24,592
642,33	22,290
642,53	21,067
642,72	19,221
642,92	17,385
643,12	16,095
643,32	14,479
643,51	12,830
643,71	11,017
643,91	10,654
644,11	9,379
644,30	8,381
644,50	7,236
644,70	6,724
644,90	5,271
645,09	5,144
645,29	4,415
645,49	4,099
645,69	3,636
645,88	3,017
646,08	2,781
646,28	2,349
646,48	1,911
646,67	1,702
646,87	1,894
647,07	1,430
647,26	1,104
647,46	1,004
647,66	1,167
647,86	0,649
648,05	1,014
648,25	1,001
648,45	0,432
648,65	0,579
648,84	0,652
649,04	0,242
649,24	0,582
649,43	0,329
649,63	0,758
649,83	0,501
650,03	0,291
650,22	0,586
650,42	0,189
650,62	0,327
650,81	0,498
651,01	-0,024
651,21	0,424
651,40	0,198
651,60	-0,016
651,80	0,121
652,00	0,089
652,19	0,431
652,39	0,528
652,59	0,577
652,78	0,356
652,98	0,081
653,18	0,327
653,37	0,613
653,57	0,705
653,77	0,504
653,96	0,518
654,16	0,289
654,36	0,321
654,55	0,649
654,75	0,628
654,95	0,334
655,14	-0,033
655,34	-0,042
655,54	0,487
655,73	0,526
655,93	0,419
656,13	0,229
656,32	0,266
656,52	0,544
656,72	0,017
656,91	-0,102
657,11	0,017
657,31	0,221
657,50	0,017
657,70	0,390
657,90	0,128
658,09	-0,025
658,29	0,178
658,49	0,136
658,68	0,395
658,88	0,471
659,07	0,370
659,27	0,331
659,47	0,188
659,66	0,094
659,86	0,119
660,06	0,294
660,25	-0,068
660,45	0,367
660,64	0,454
660,84	0,421
661,04	0,033
661,23	0,226
661,43	0,436
661,63	0,436
661,82	0,017
662,02	0,151
662,21	0,159
662,41	0,158
662,61	0,116
662,80	0,461
663,00	-0,126
663,19	0,219
663,39	0,134
663,59	0,227
663,78	-0,049
663,98	0,265
664,17	0,245
664,37	0,306
664,57	0,171
664,76	0,174
664,96	0,186
665,15	0,499
665,35	0,318
665,55	0,410
665,74	0,000
665,94	0,016
666,13	0,080
666,33	0,192
666,53	-0,135
666,72	0,182
666,92	0,366
667,11	-0,095
667,31	0,117
667,50	0,131
667,70	0,148
667,90	0,147
668,09	-0,023
668,29	0,285
668,48	0,091
668,68	0,061
668,87	0,287
669,07	0,106
669,26	0,172
669,46	0,261
669,66	-0,022
669,85	0,128
670,05	-0,089
670,24	0,216
670,44	0,438
670,63	0,441
670,83	0,065
671,02	0,116
671,22	0,300
671,42	0,483
671,61	-0,079
671,81	-0,130
672,00	0,112
672,20	-0,077
672,39	0,180
672,59	0,173
672,78	0,042
672,98	-0,421
673,17	0,102
673,37	0,423
673,56	0,175
673,76	0,597
673,95	-0,067
674,15	0,180
674,34	0,086
674,54	0,052
674,73	0,110
674,93	0,039
675,13	-0,019
675,32	0,154
675,52	-0,006
675,71	0,013
675,91	0,188
676,10	0,050
676,30	0,050
676,49	0,049
676,69	0,135
676,88	0,061
677,08	-0,012
677,27	-0,126
677,47	0,166
677,66	0,323
677,86	0,246
678,05	0,146
678,24	-0,075
678,44	-0,104
678,63	0,057
678,83	0,017
679,02	0,322
679,22	0,151
679,41	0,099
679,61	0,352
679,80	0,082
680,00	0,135
680,19	-0,086
680,39	-0,111
680,58	-0,053
680,78	0,164
680,97	0,058
681,17	0,062
681,36	0,041
681,56	0,020
681,75	0,211
681,94	0,060
682,14	0,065
682,33	0,316
682,53	0,112
682,72	0,267
682,92	-0,140
683,11	0,033
683,31	0,038
683,50	-0,062
683,69	-0,117
683,89	-0,079
684,08	-0,084
684,28	0,114
684,47	-0,100
684,67	-0,117
684,86	-0,089
685,06	0,062
685,25	-0,040
685,44	0,162
685,64	-0,004
685,83	-0,091
686,03	0,039
686,22	0,106
686,42	0,013
686,61	0,125
686,80	0,062
687,00	-0,124
687,19	0,229
687,39	0,102
687,58	-0,024
687,77	-0,048
687,97	0,196
688,16	-0,004
688,36	0,178
688,55	-0,154
688,74	-0,015
688,94	0,062
689,13	-0,046
689,33	-0,106
689,52	-0,030
689,71	0,087
689,91	-0,194
690,10	-0,026
690,30	0,055
690,49	0,055
690,68	0,051
690,88	0,036
691,07	0,007
691,27	0,234
691,46	0,094
691,65	0,083
691,85	-0,039
692,04	-0,246
692,23	-0,223
692,43	-0,029
692,62	0,014
692,82	0,120
693,01	0,032
693,20	-0,062
693,40	0,095
693,59	-0,103
693,78	-0,122
693,98	0,000
694,17	0,049
694,36	0,090
694,56	-0,165
694,75	-0,016
694,94	-0,086
695,14	-0,092
695,33	-0,020
695,53	-0,505
695,72	0,000
695,91	0,008
696,11	0,134
696,30	0,079
696,49	0,022
696,69	0,115
696,88	0,347
697,07	-0,015
697,27	0,094
697,46	0,117
697,65	0,083
697,85	-0,037
698,04	-0,071
698,23	-0,193
698,43	0,359
698,62	-0,256
698,81	-0,006
699,01	-0,185
699,20	-0,168
699,39	0,087
699,58	0,014
699,78	0,164
699,97	-0,096
700,16	-0,015
700,36	-0,143
700,55	0,514
700,74	-0,134
700,94	0,026
701,13	0,168
701,32	0,217
701,52	0,082
701,71	0,372
701,90	-0,079
702,09	-0,329
702,29	0,533
702,48	0,086
702,67	0,402
702,87	-0,209
703,06	-0,140
703,25	-0,037
703,44	0,185
703,64	0,582
703,83	0,468
704,02	-0,287
704,22	-0,142
704,41	0,773
704,60	0,765
704,79	-0,304
704,99	0,341
705,18	-0,112
705,37	1,023
705,56	0,424
705,76	0,769
705,95	0,665
706,14	0,274
706,33	0,278
706,53	0,945
706,72	1,094
706,91	0,474
707,11	-0,181
707,30	0,190
707,49	0,666
707,68	0,482
707,88	-0,911
708,07	0,580
708,26	0,305
708,45	0,478
708,64	0,756
708,84	0,726
709,03	1,062
709,22	0,660
709,41	1,105
709,61	-1,003
709,80	0,335
709,99	1,198
710,18	0,951
710,38	0,902
710,57	1,315
710,76	1,458
710,95	1,244
711,14	0,862
711,34	0,406
711,53	0,706
711,72	1,156
711,91	1,199
712,11	0,736
712,30	1,116
712,49	2,034
712,68	1,699
712,87	1,290
713,07	2,320
713,26	-0,323
713,45	0,041
713,64	1,433
713,83	0,623
714,03	0,515
714,22	-0,392
714,41	0,402
714,60	1,262
714,79	-0,628
714,99	0,805
715,18	0,659
715,37	1,840
715,56	0,762
715,75	-0,237
715,94	-1,017
716,14	-0,673
716,33	-1,605
716,52	1,716
716,71	-1,734
716,90	-0,844
717,10	2,609
717,29	0,617
717,48	1,361
717,67	0,508
717,86	-1,259
718,05	0,518
718,24	1,851
718,44	3,360
718,63	2,430
718,82	1,319
719,01	2,213
719,20	1,803
719,39	2,263
719,59	-0,507
719,78	1,447
719,97	2,863
720,16	-1,190
720,35	1,434
720,54	0,067
720,73	-0,068
720,93	1,184
721,12	-0,937
721,31	1,020
721,50	1,776
721,69	2,166
721,88	0,439
722,07	1,440
722,27	-3,427
722,46	-0,496
722,65	0,000
722,84	-0,237
723,03	3,054
723,22	0,650
723,41	1,774
723,60	-0,084
723,79	2,919
723,99	4,221
724,18	-1,142
724,37	0,266
724,56	0,174
724,75	-2,679
724,94	4,448
725,13	1,325
725,32	1,623
725,51	1,792
725,71	2,885
725,90	1,867
726,09	2,567
726,28	4,991
726,47	3,401
726,66	0,876
726,85	-1,753
727,04	2,933
727,23	2,246
727,42	0,398
727,61	1,559
727,81	-0,433
728,00	-2,307
728,19	-0,635
728,38	1,389
728,57	2,473
728,76	4,522
728,95	4,809
729,14	1,072
729,33	3,322
729,52	3,586
729,71	0,233
729,90	-1,281
730,09	6,154
730,28	0,473
730,48	2,663
730,67	6,353
730,86	1,269
731,05	-2,699
731,24	-0,942
731,43	7,491
731,62	7,284
731,81	2,975
732,00	4,732
732,19	1,504
732,38	0,121
732,57	2,010
732,76	-3,433
732,95	0,770
733,14	7,455
733,33	1,944
733,52	-3,388
733,71	5,585
733,90	1,798
734,09	5,874
734,28	11,549
734,47	0,000
734,66	3,787
734,85	1,410
735,04	6,026
735,23	1,662
735,42	3,546
735,61	6,371
735,81	1,420
736,00	2,556
736,19	2,999
736,38	4,511
736,57	0,158
736,76	2,209
736,95	1,754
737,14	8,896
737,33	-0,623
737,52	-0,304
737,71	7,012
737,90	4,633
738,09	1,034
738,28	2,760
738,47	-1,447
738,66	-1,525
738,85	-1,102
739,04	2,576
739,22	2,744
739,41	0,175
739,60	3,591
739,79	8,348
739,98	10,169
740,17	8,108
740,36	4,545
740,55	1,639
740,74	-0,929
740,93	0,337
741,12	6,401
741,31	-8,793
741,50	-0,697
741,69	-4,991
741,88	10,158
742,07	-2,827
742,26	1,912
742,45	3,804
742,64	5,918
742,83	-4,396
743,02	0,000
743,21	2,257
743,40	5,747
743,59	4,519
743,78	0,422
743,97	11,006
744,16	2,802
744,34	8,471
744,53	6,250
744,72	1,699
744,91	7,187
745,10	-3,908
745,29	1,174
745,48	-1,092
745,67	3,111
745,86	9,336
746,05	3,356
746,24	2,155
746,43	12,472
746,62	12,426
746,81	0,000
747,00	9,792
747,18	0,000
747,37	2,273
747,56	13,272
747,75	-9,974
747,94	9,848
748,13	3,271
748,32	12,683
748,51	15,691
748,70	-0,959
748,89	9,409
749,08	13,793
749,26	8,267
749,45	8,899
749,64	8,269
749,83	4,177
750,02	-6,971
750,21	8,333
750,40	-1,583
750,59	-2,394
750,78	6,988
750,96	6,983
751,15	4,021
751,34	12,285
751,53	0,833
751,72	1,877
751,91	0,000
752,10	1,127
752,29	-6,957
752,47	4,885
752,66	12,426
752,85	23,545
753,04	1,081
753,23	9,585
753,42	7,980
753,61	14,286
753,80	1,502
753,98	15,313
754,17	9,348
754,36	11,111
754,55	13,355
754,74	16,486
754,93	13,871
755,12	4,923
755,30	-9,594
755,49	0,587
755,68	9,041
755,87	8,532
756,06	6,340
756,25	-4,290
756,43	9,712
756,62	0,000
756,81	-10,588
757,00	16,758
757,19	17,791
757,38	4,235
757,56	9,797
757,75	-3,053
757,94	6,034
758,13	8,280
758,32	-10,606
758,51	20,645
758,69	6,410
758,88	10,164
759,07	17,082
759,26	-1,701
759,45	23,929
759,63	0,000
759,82	16,058
760,01	0,000
760,20	11,314
760,39	-1,149
760,57	-9,442
760,76	-6,489
760,95	-3,448
761,14	5,385
761,33	5,859
761,51	5,556
761,70	27,931
761,89	18,217
762,08	8,190
762,27	-12,981
762,45	5,189
762,64	21,239
762,83	27,138
763,02	17,993
763,21	16,901
763,39	0,000
763,58	15,510
763,77	16,489
763,96	30,994
764,14	11,618
764,33	22,556
764,52	15,179
764,71	21,675
764,89	20,946
765,08	17,228
765,27	13,861
765,46	4,091
765,65	28,934
765,83	16,667
766,02	10,623
766,21	8,861
766,40	27,907
766,58	-2,715
766,77	-10,734
766,96	20,513
767,15	16,908
767,33	-13,942
767,52	0,948
767,71	19,444
767,90	15,000
768,08	26,180
768,27	26,047
768,46	46,190
768,64	23,301
768,83	32,973
769,02	17,143
769,21	22,396
769,39	10,067
769,58	37,000
769,77	17,391
769,96	11,258
770,14	29,389
770,33	31,016
770,52	33,974
770,70	23,762
770,89	8,673
771,08	13,542
771,27	31,443
771,45	36,416
771,64	17,763
771,83	47,849
772,01	0,763
772,20	16,162
772,39	24,204
772,57	41,667
772,76	42,759
772,95	9,645
773,14	31,395
773,32	14,835
773,51	33,953
773,70	35,762
773,88	50,754
774,07	40,586
774,26	42,073
774,44	17,085
774,63	46,835
774,82	46,386
775,00	28,384
775,19	32,184
775,38	22,000
775,56	40,854
775,75	37,725
775,94	19,403
776,12	23,333
776,31	59,281
776,50	30,303
776,68	27,778
776,87	34,266
777,06	19,178
777,24	39,344
777,43	40,650
777,62	42,222
777,80	19,022
777,99	37,580
778,18	60,510
778,36	26,718
778,55	34,074
778,74	17,424
778,92	51,584
779,11	78,065
779,29	30,719
779,48	38,843
779,67	55,396
779,85	66,400
780,04	57,746
780,23	24,476
780,41	41,765
780,60	24,561
780,79	60,417
780,97	50,714
781,16	34,400
781,34	62,121
781,53	30,128
781,72	41,667
781,90	64,423
782,09	54,098
782,28	32,520
782,46	26,829
782,65	46,154
782,83	7,634
783,02	38,400
783,21	45,736
783,39	19,231
783,58	64,667
783,76	52,703
783,95	38,411
784,14	55,789
784,32	12,844
784,51	42,697
784,69	31,210
784,88	54,194
785,06	50,355
785,25	44,361
785,44	59,459
785,62	35,714
785,81	51,493
785,99	7,483
786,18	18,852
786,37	44,138
786,55	5,970
786,74	65,217
786,92	25,581
787,11	29,600
787,29	37,647
787,48	30,000
787,67	36,735
787,85	12,500
788,04	58,904
788,22	36,111
788,41	64,474
788,59	48,980
788,78	37,500
788,96	74,286
789,15	50,820
789,34	35,366
789,52	23,881
789,71	22,222
789,89	36,842
790,08	10,784
790,26	47,619
790,45	43,066
790,63	28,289
790,82	35,484
791,00	38,095
791,19	19,286
791,38	30,137
791,56	50,000
791,75	36,486
791,93	3,922
792,12	-12,879
792,30	20,395
792,49	9,346
792,67	24,286
792,86	21,622
793,04	22,222
793,23	37,500
793,41	30,968
793,60	10,759
793,78	50,336
793,97	34,483
794,15	34,641
794,34	22,449
794,52	55,039
794,71	59,259
794,89	43,571
795,08	50,000
795,26	23,000
795,45	65,957
795,63	35,849
795,82	26,050
796,00	23,077
796,19	37,662
796,37	-3,390
796,56	31,481
796,74	41,406
796,93	18,487
797,11	35,833
797,30	46,565
797,48	32,168
797,67	38,710
797,85	63,043
798,04	17,117
798,22	60,432
798,41	72,881
798,59	27,143
798,77	41,880
798,96	41,129
799,14	64,815
799,33	34,513
799,51	28,713
799,70	29,670
799,88	47,706
800,07	63,309
800,25	29,008
800,44	-2,970
800,62	42,446
800,80	9,091
800,99	28,205
801,17	40,690
801,36	-3,125
801,54	49,612
801,73	19,697
801,91	35,955
802,10	15,294
802,28	46,457
802,46	37,097
802,65	48,344
802,83	19,008
803,02	50,510
803,20	61,017
803,39	1,835
803,57	31,690
803,75	12,143
803,94	42,568
804,12	28,571
804,31	68,269
804,49	47,097
804,67	-0,901
804,86	36,646
805,04	13,953
805,23	34,307
805,41	29,412
805,59	22,892
805,78	32,857
805,96	48,795
806,15	54,400
806,33	5,109
806,51	51,923
806,70	-10,465
806,88	12,727
807,07	46,721
807,25	-0,870
807,43	6,667
807,62	35,156
807,80	32,927
807,99	46,043
808,17	16,667
808,35	68,868
808,54	45,251
808,72	37,821
808,90	42,276
809,09	50,365
809,27	49,515
809,46	42,056
809,64	46,243
809,82	38,621
810,01	51,075
810,19	5,455
810,37	44,886
810,56	12,583
810,74	45,912
810,92	36,620
811,11	18,405
811,29	53,416
811,48	23,478
811,66	34,010
811,84	28,814
812,03	37,838
812,21	51,515
812,39	58,871
812,58	21,053
812,76	40,146
812,94	53,691
813,13	30,488
813,31	44,974
813,49	35,333
813,68	9,016
813,86	46,154
814,04	37,838
814,23	6,154
814,41	15,753
814,59	18,301
814,78	34,899
814,96	33,520
815,14	47,739
815,33	54,545
815,51	41,732
815,69	33,588
815,87	18,710
816,06	50,746
816,24	45,098
816,42	17,857
816,61	54,321
816,79	39,884
816,97	66,667
817,16	34,524
817,34	31,176
817,52	62,617
817,70	38,860
817,89	57,895
818,07	54,000
818,25	48,734
818,44	57,219
818,62	63,366
818,80	55,495
818,98	-2,564
819,17	52,966
819,35	49,664
819,53	39,487
819,72	48,108
819,90	60,000
820,08	43,564
820,26	48,858
820,45	49,462
820,63	54,971
820,81	36,239
820,99	58,952
821,18	45,181
821,36	35,625
821,54	65,174
821,73	79,781
821,91	19,718
822,09	44,379
822,27	54,086
822,46	40,394
822,64	40,000
822,82	54,822
823,00	47,120
823,19	53,333
823,37	43,590
823,55	41,772
823,73	50,562
823,91	29,947
824,10	41,146
824,28	42,975
824,46	35,526
824,64	60,886
824,83	35,545
825,01	45,882
825,19	42,358
825,37	58,824
825,56	33,588
825,74	42,857
825,92	47,860
826,10	37,004
826,28	37,638
826,47	56,420
826,65	40,288
826,83	31,579
827,01	51,969
827,19	40,698
827,38	34,457
827,56	60,000
827,74	20,853
827,92	30,244
828,10	42,014
828,29	39,483
828,47	39,051
828,65	43,750
828,83	51,899
829,01	35,135
829,20	41,538
829,38	31,148
829,56	38,721
829,74	44,615
829,92	34,818
830,10	35,622
830,29	47,510
830,47	35,075
830,65	36,402
830,83	40,816
831,01	60,090
831,20	33,942
831,38	40,065
831,56	35,439
831,74	44,068
831,92	45,055
832,10	38,924
832,29	41,343
832,47	38,652
832,65	39,344
832,83	37,342
833,01	33,535
833,19	49,148
833,37	43,769
833,56	40,774
833,74	48,197
833,92	32,095
834,10	42,169
834,28	40,418
834,46	41,329
834,64	41,600
834,83	26,629
835,01	32,898
835,19	27,305
835,37	35,028
835,55	38,810
835,73	28,249
835,91	38,643
836,09	33,882
836,28	28,963
836,46	29,204
836,64	29,659
836,82	31,319
837,00	24,920
837,18	33,333
837,36	32,845
837,54	25,956
837,72	27,595
837,91	29,178
838,09	32,727
838,27	36,788
838,45	47,123
838,63	29,577
838,81	27,356
838,99	23,077
839,17	34,783
839,35	40,406
839,53	25,255
839,72	29,670
839,90	25,556
840,08	32,941
840,26	22,047
840,44	39,440
840,62	11,860
840,80	35,604
840,98	31,096
841,16	32,880
841,34	33,333
841,52	29,783
841,70	18,362
841,89	33,257
842,07	35,862
842,25	35,639
842,43	35,523
842,61	40,898
842,79	38,549
842,97	27,689
843,15	23,173
843,33	33,539
843,51	36,522
843,69	33,203
843,87	38,911
844,05	41,253
844,23	34,719
844,41	48,907
844,59	40,249
844,77	35,876
844,95	37,013
845,13	40,632
845,31	32,613
845,50	40,787
845,68	38,972
845,86	33,537
846,04	30,931
846,22	38,246
846,40	38,223
846,58	37,649
846,76	48,682
846,94	33,201
847,12	39,038
847,30	37,523
847,48	41,894
847,66	44,856
847,84	37,102
848,02	38,051
848,20	47,081
848,38	38,214
848,56	40,575
848,74	35,155
848,92	40,893
849,10	48,239
849,28	33,071
849,46	30,129
849,64	36,899
849,82	38,978
850,00	35,919
850,18	34,865
850,36	35,927
850,54	34,665
850,72	32,555
850,90	33,748
851,08	33,228
851,26	35,599
851,44	35,057
851,62	47,881
851,80	28,464
851,98	32,730
852,16	34,978
852,34	35,493
852,52	30,917
852,70	42,671
852,87	32,314
853,05	37,679
853,23	35,546
853,41	40,845
853,59	33,622
853,77	39,099
853,95	40,413
854,13	40,767
854,31	34,771
854,49	35,443
854,67	41,210
854,85	38,679
855,03	42,025
855,21	41,005
855,39	38,882
855,57	42,297
855,75	40,239
855,93	35,815
856,11	41,375
856,28	40,479
856,46	38,553
856,64	44,675
856,82	43,665
857,00	48,731
857,18	45,563
857,36	43,159
857,54	46,163
857,72	48,931
857,90	44,870
858,08	46,224
858,26	45,660
858,44	45,042
858,61	41,921
858,79	46,484
858,97	49,483
859,15	52,941
859,33	48,070
859,51	49,364
859,69	52,614
859,87	49,093
860,05	46,986
860,23	47,965
860,40	43,934
860,58	46,726
860,76	46,630
860,94	48,611
861,12	46,743
861,30	48,330
861,48	47,777
861,66	48,330
861,84	49,351
862,01	49,049
862,19	46,646
862,37	48,212
862,55	47,874
862,73	47,211
862,91	52,046
863,09	48,460
863,27	47,781
863,44	51,057
863,62	49,693
863,80	46,927
863,98	41,160
864,16	41,730
864,34	45,808
864,52	49,683
864,69	51,606
864,87	43,163
865,05	41,788
865,23	46,667
865,41	44,048
865,59	43,979
865,76	39,537
865,94	40,239
866,12	40,957
866,30	44,943
866,48	44,110
866,66	44,609
866,83	45,673
867,01	45,013
867,19	42,127
867,37	43,966
867,55	46,088
867,73	42,905
867,90	43,577
868,08	46,995
868,26	41,717
868,44	38,629
868,62	48,435
868,79	46,399
868,97	41,158
869,15	41,310
869,33	42,687
869,51	44,025
869,69	42,949
869,86	44,389
870,04	45,816
870,22	39,012
870,40	43,914
870,57	42,302
870,75	42,314
870,93	37,643
871,11	38,450
871,29	36,594
871,46	35,615
871,64	38,624
871,82	40,950
872,00	40,813
872,18	34,667
872,35	36,892
872,53	36,789
872,71	32,237
872,89	38,088
873,06	39,348
873,24	34,857
873,42	35,395
873,60	38,619
873,77	34,165
873,95	36,882
874,13	36,707
874,31	38,738
874,49	37,865
874,66	39,482
874,84	38,102
875,02	35,521
875,20	39,360
875,37	37,762
875,55	36,931
875,73	37,709
875,91	37,221
876,08	36,329
876,26	37,138
876,44	36,451
876,61	38,266
876,79	34,961
876,97	33,023
877,15	40,541
877,32	32,738
877,50	36,681
877,68	34,810
877,86	36,245
878,03	34,432
878,21	37,329
878,39	35,969
878,56	38,596
878,74	38,491
878,92	37,100
879,10	37,453
879,27	39,865
879,45	37,257
879,63	35,761
879,80	35,821
879,98	36,853
880,16	37,024
880,34	37,301
880,51	38,486
880,69	35,539
880,87	35,535
881,04	36,126
881,22	35,391
881,40	34,022
881,57	34,987
881,75	37,113
881,93	32,839
882,10	34,846
882,28	34,331
882,46	35,731
882,63	35,026
882,81	33,239
882,99	32,255
883,16	35,893
883,34	32,467
883,52	31,112
883,69	31,403
883,87	31,769
884,05	30,524
884,22	32,985
884,40	32,184
884,58	29,543
884,75	30,965
884,93	31,159
885,11	31,242
885,28	30,756
885,46	28,670
885,64	30,993
885,81	29,337
885,99	27,995
886,17	31,064
886,34	30,267
886,52	29,129
886,70	29,705
886,87	28,560
887,05	29,276
887,22	27,622
887,40	30,607
887,58	27,459
887,75	28,792
887,93	28,500
888,11	28,506
888,28	28,967
888,46	27,506
888,63	25,870
888,81	28,561
888,99	29,040
889,16	29,861
889,34	28,832
889,51	30,801
889,69	30,807
889,87	29,505
890,04	29,537
890,22	30,999
890,39	29,566
890,57	30,103
890,75	33,255
890,92	30,574
891,10	30,822
891,27	32,953
891,45	30,832
891,63	29,952
891,80	33,659
891,98	31,814
892,15	34,699
892,33	33,610
892,51	33,186
892,68	32,810
892,86	34,468
893,03	33,953
893,21	34,472
893,38	36,059
893,56	36,240
893,74	37,227
893,91	35,226
894,09	36,488
894,26	36,582
894,44	37,005
894,61	36,734
894,79	37,721
894,96	38,284
895,14	37,209
895,32	38,568
895,49	41,182
895,67	37,273
895,84	41,474
896,02	39,835
896,19	39,480
896,37	39,207
896,54	42,063
896,72	41,436
896,89	39,549
897,07	39,428
897,25	39,840
897,42	41,559
897,60	40,244
897,77	41,999
897,95	41,423
898,12	42,172
898,30	41,710
898,47	40,743
898,65	41,899
898,82	42,137
899,00	41,450
899,17	42,125
899,35	42,384
899,52	43,697
899,70	43,010
899,87	40,339
900,05	42,630
900,22	42,467
900,40	40,409
900,57	40,574
900,75	41,374
900,92	40,890
901,10	40,489
901,27	42,446
901,45	39,932
901,62	41,216
901,80	41,634
901,97	40,476
902,15	40,605
902,32	40,340
902,50	42,518
902,67	40,187
902,85	40,818
903,02	38,608
903,20	39,040
903,37	39,654
903,54	38,504
903,72	36,998
903,89	40,563
904,07	38,483
904,24	39,561
904,42	38,452
904,59	39,135
904,77	40,871
904,94	38,768
905,12	40,792
905,29	39,172
905,47	39,516
905,64	38,815
905,81	39,428
905,99	37,230
906,16	40,718
906,34	37,500
906,51	37,817
906,69	38,702
906,86	39,438
907,03	37,775
907,21	38,626
907,38	36,733
907,56	35,642
907,73	37,361
907,91	37,518
908,08	35,407
908,25	35,596
908,43	37,779
908,60	36,274
908,78	37,515
908,95	35,793
909,13	35,511
909,30	35,205
909,47	33,670
909,65	34,342
909,82	34,273
910,00	34,181
910,17	33,642
910,34	33,117
910,52	33,445
910,69	33,732
910,87	33,259
911,04	32,048
911,21	33,868
911,39	31,651
911,56	33,478
911,73	33,623
911,91	32,595
912,08	31,609
912,26	30,424
912,43	31,363
912,60	29,526
912,78	31,706
912,95	30,560
913,13	30,629
913,30	30,075
913,47	30,599
913,65	31,124
913,82	29,644
913,99	30,314
914,17	31,908
914,34	29,218
914,51	31,210
914,69	31,098
914,86	30,275
915,03	31,359
915,21	30,642
915,38	31,293
915,56	31,587
915,73	31,878
915,90	31,281
916,08	31,153
916,25	31,431
916,42	31,419
916,60	31,060
916,77	31,627
916,94	31,647
917,12	31,126
917,29	32,957
917,46	32,237
917,64	31,309
917,81	32,450
917,98	32,318
918,16	32,481
918,33	32,317
918,50	31,154
918,67	31,326
918,85	31,724
919,02	30,984
919,19	32,411
919,37	32,766
919,54	33,764
919,71	33,401
919,89	34,004
920,06	33,872
920,23	34,631
920,41	33,177
920,58	33,321
920,75	33,894
920,92	32,913
921,10	32,529
921,27	35,525
921,44	32,315
921,62	32,884
921,79	32,572
921,96	35,357
922,13	33,486
922,31	33,657
922,48	32,672
922,65	32,774
922,82	33,310
923,00	32,186
923,17	34,000
923,34	32,021
923,52	32,623
923,69	33,441
923,86	31,967
924,03	31,910
924,21	32,339
924,38	32,015
924,55	32,581
924,72	30,641
924,90	31,500
925,07	31,824
925,24	30,819
925,41	30,902
925,59	31,887
925,76	30,643
925,93	31,125
926,10	30,816
926,28	30,325
926,45	30,698
926,62	29,543
926,79	29,897
926,96	29,054
927,14	30,250
927,31	29,818
927,48	28,710
927,65	30,153
927,83	30,178
928,00	29,019
928,17	28,840
928,34	28,262
928,51	28,725
928,69	28,384
928,86	28,950
929,03	29,000
929,20	28,766
929,37	28,647
929,55	28,576
929,72	30,077
929,89	29,238
930,06	28,525
930,23	29,225
930,41	29,831
930,58	29,715
930,75	29,102
930,92	28,983
931,09	29,535
931,27	28,977
931,44	30,008
931,61	31,248
931,78	29,959
931,95	31,004
932,12	30,199
932,30	30,050
932,47	30,441
932,64	29,156
932,81	29,572
932,98	30,252
933,16	30,797
933,33	30,818
933,50	30,073
933,67	31,829
933,84	31,931
934,01	30,499
934,18	30,863
934,36	31,242
934,53	31,806
934,70	31,981
934,87	31,800
935,04	31,432
935,21	32,577
935,38	31,959
935,56	31,514
935,73	31,274
935,90	32,611
936,07	33,060
936,24	32,540
936,41	31,693
936,58	33,022
936,76	34,230
936,93	32,326
937,10	34,057
937,27	34,317
937,44	34,692
937,61	35,421
937,78	33,626
937,95	33,193
938,13	33,911
938,30	34,574
938,47	33,634
938,64	35,166
938,81	34,949
938,98	34,673
939,15	34,650
939,32	35,525
939,49	35,800
939,66	35,493
939,84	35,029
940,01	36,943
940,18	35,482
940,35	36,691
940,52	35,714
940,69	36,210
940,86	36,128
941,03	38,517
941,20	35,921
941,37	37,687
941,54	36,790
941,71	36,925
941,89	36,266
942,06	38,452
942,23	38,199
942,40	38,136
942,57	38,388
942,74	37,123
942,91	38,271
943,08	38,116
943,25	39,865
943,42	38,298
943,59	38,798
943,76	39,201
943,93	38,472
944,10	39,755
944,27	39,121
944,44	39,059
944,61	38,365
944,79	38,918
944,96	39,682
945,13	39,051
945,30	38,187
945,47	39,617
945,64	39,376
945,81	38,756
945,98	41,166
946,15	40,163
946,32	39,167
946,49	39,464
946,66	39,670
946,83	40,837
947,00	39,988
947,17	41,108
947,34	41,172
947,51	40,271
947,68	41,846
947,85	41,875
948,02	42,051
948,19	43,429
948,36	44,218
948,53	42,678
948,70	41,738
948,87	42,387
949,04	43,622
949,21	42,857
949,38	43,211
949,55	41,763
949,72	42,897
949,89	42,416
950,06	42,694
950,23	42,323
950,40	41,440
950,57	41,713
950,74	43,170
950,91	45,751
951,08	43,994
951,25	43,504
951,42	43,302
951,59	43,448
951,76	43,520
951,93	43,425
952,10	44,169
952,27	44,253
952,44	46,699
952,61	44,036
952,77	46,894
952,94	43,249
953,11	44,891
953,28	45,772
953,45	46,662
953,62	44,344
953,79	46,044
953,96	46,396
954,13	46,393
954,30	45,070
954,47	47,370
954,64	44,872
954,81	44,741
954,98	46,900
955,15	43,656
955,32	45,990
955,49	43,611
955,65	46,804
955,82	46,174
955,99	48,600
956,16	46,458
956,33	43,447
956,50	45,139
956,67	43,874
956,84	44,389
957,01	41,165
957,18	42,370
957,35	45,268
957,52	40,719
957,68	43,315
957,85	45,050
958,02	44,229
958,19	42,157
958,36	44,950
958,53	45,021
958,70	44,678
958,87	40,912
959,04	47,175
959,21	43,093
959,37	41,493
959,54	47,003
959,71	41,712
959,88	41,757
960,05	45,359
960,22	42,727
960,39	43,214
960,56	43,846
960,72	42,060
960,89	43,811
961,06	43,172
961,23	41,572
961,40	44,252
961,57	39,965
961,74	44,902
961,90	43,248
962,07	45,924
962,24	42,662
962,41	42,620
962,58	41,695
962,75	40,947
962,92	43,409
963,08	42,695
963,25	39,810
963,42	38,235
963,59	44,632
963,76	39,332
963,93	40,589
964,10	40,851
964,26	32,844
964,43	46,995
964,60	43,935
964,77	48,239
964,94	44,615
965,10	46,895
965,27	44,764
965,44	53,333
965,61	39,961
965,78	47,627
965,95	39,623
966,11	46,973
966,28	52,967
966,45	45,905
966,62	42,735
966,79	42,276
966,95	34,914
967,12	45,694
967,29	52,103
967,46	48,261
967,63	50,370
967,79	51,087
967,96	36,745
968,13	56,426
968,30	40,984
968,47	40,369
968,63	38,757
968,80	51,724
968,97	54,857
969,14	46,903
969,31	27,885
969,47	60,883
969,64	62,046
969,81	47,719
969,98	45,322
970,14	48,148
970,31	53,405
970,48	59,786
970,65	47,887
970,81	39,796
970,98	65,918
971,15	55,760
971,32	62,712
971,48	47,059
971,65	49,160
971,82	50,510
971,99	64,677
972,15	81,053
972,32	43,621
972,49	40,773
972,66	28,319
972,82	45,050
972,99	62,128
973,16	74,742
973,33	49,524
973,49	77,222
973,66	61,345
973,83	36,735
974,00	81,967
974,16	64,151
974,33	64,024
974,50	58,333
974,67	75,263
974,83	64,972
975,00	28,261
975,17	73,469
975,33	76,812
975,50	60,000
975,67	66,964
975,84	81,560
976,00	54,615
976,17	41,176
976,34	60,284
976,50	85,217
976,67	58,621
976,84	58,974
977,00	58,647
977,17	62,992
977,34	80,645
977,50	101,064
977,67	67,544
977,84	62,727
978,01	109,195
978,17	228,205
978,34	67,708
978,51	-22,727
978,67	68,132
978,84	79,167
979,01	-6,154
979,17	125,758
979,34	106,250
979,51	76,923
979,67	68,750
979,84	109,524
980,01	127,869
980,17	69,412
980,34	76,812
980,51	113,636
980,67	86,667
980,84	105,172
981,01	-12,821
981,17	70,000
981,34	75,000
981,50	77,941
981,67	117,241
981,84	93,103
982,00	80,435
982,17	404,545
982,34	189,744
982,50	184,211
982,67	103,704
982,84	85,714
983,00	182,000
983,17	137,500
983,33	109,677
983,50	69,565
983,67	89,130
983,83	900,000
984,00	62,500
984,17	50,000
984,33	44,595
984,50	45,833
984,66	60,714
984,83	41,860
985,00	139,344
985,16	94,872
985,33	106,250
985,49	248,276
985,66	33,333
985,83	114,035
985,99	57,658
986,16	108,000
986,32	126,087
986,49	325,000
986,66	-25,581
986,82	150,877
986,99	61,905
987,15	117,241
987,32	114,815
987,49	113,889
987,65	290,000
987,82	-29,412
987,98	211,765
988,15	189,286
988,31	54,000
988,48	-33,333
988,65	162,963
988,81	100,000
988,98	383,333
989,14	130,612
989,31	176,667
989,47	26,829
989,64	48,571
989,80	-46,667
989,97	86,765
990,14	-121,739
990,30	12,500
990,47	85,366
990,63	278,261
990,80	139,394
990,96	179,167
991,13	88,889
991,29	45,098
991,46	182,353
991,62	47,059
991,79	98,246
991,95	250,000
992,12	60,465
992,29	212,000
992,45	-69,231
992,62	-0,000
992,78	-181,481
992,95	-61,111
993,11	176,667
993,28	56,790
993,44	326,087
993,61	1133,333
993,77	720,000
993,94	179,070
994,10	133,333
994,27	32,000
994,43	258,824
994,60	-84,848
994,76	178,947
994,93	240,909
995,09	-113,514
995,26	49,383
995,42	61,017
995,59	435,714
995,75	253,125
995,92	109,091
996,08	166,667
996,25	-66,667
996,41	162,500
996,58	197,297
996,74	-90,000
996,91	183,333
997,07	153,846
997,23	146,809
997,40	600,000
997,56	360,000
997,73	0,000
997,89	37,037
998,06	-7,843
998,22	1400,000
998,39	330,435
998,55	-108,333
998,72	165,000
998,88	1900,000
999,05	-61,538
999,21	278,261
999,37	-3200,000
999,54	-1250,000
999,70	161,538
999,87	212,500
1000,03	106,250
1000,20	-350,000
1000,36	2200,000
1000,52	27,778
1000,69	118,182
1000,85	91,379
1001,02	75,385
1001,18	140,909
1001,35	31,111
1001,51	-271,429
1001,67	12,000
1001,84	1150,000
1002,00	102,500
1002,17	36,364
1002,33	-94,118
1002,50	-255,556
1002,66	4400,000
1002,82	174,286
1002,99	-88,462
1003,15	217,391
1003,32	125,806
1003,48	-740,000
1003,64	45,000
1003,81	-21,429
1003,97	277,273
1004,14	2000,000
1004,30	-842,857
1004,46	950,000
1004,63	121,053
1004,79	73,333
1004,95	-41,176
1005,12	85,714
1005,28	224,138
1005,45	90,385
1005,61	-1066,667
1005,77	155,263
1005,94	193,548
1006,10	-3100,000
1006,26	117,857
1006,43	300,000
1006,59	-185,185
1006,76	20,000
1006,92	860,000
1007,08	410,000
1007,25	-97,222
1007,41	-366,667
1007,57	-237,500
1007,74	-4,348
1007,90	-580,000
1008,06	145,714
1008,23	85,185
1008,39	1700,000
1008,55	-0,000
1008,72	481,250
1008,88	78,000
1009,04	160,000
1009,21	-5,882
1009,37	-187,500
1009,53	-168,421
1009,70	-30,769
1009,86	134,091
1010,02	400,000
1010,19	0,000
1010,35	125,000
1010,51	722,222
1010,68	637,500
1010,84	-2000,000
1011,00	66,667
1011,17	-1020,000
1011,33	100,000
1011,49	134,375
1011,66	195,652
1011,82	-30,189
1011,98	-25,000
1012,14	45,455
1012,31	-900,000
1012,47	200,000
1012,63	311,111
1012,80	96,000
1012,96	-209,091
1013,12	132,558
1013,29	55,263
1013,45	15,556
1013,61	-133,333
1013,77	88,889
1013,94	0,000
1014,10	48,485
1014,26	1350,000
1014,43	-57,576
1014,59	-500,000
1014,75	1550,000
1014,91	-33,333
1015,08	40,000
1015,24	-733,333
1015,40	-217,647
1015,56	277,778
1015,73	142,222
1015,89	161,905
1016,05	540,000
1016,21	-466,667
1016,38	1100,000
1016,54	-246,154
1016,70	-7,407
1016,86	124,242
1017,03	130,769
1017,19	256,522
1017,35	-15,385
1017,51	57,143
1017,68	-9,091
1017,84	2500,000
1018,00	485,714
1018,16	41,667
1018,33	-628,571
1018,49	75,610
1018,65	-100,000
1018,81	40,000
1018,97	-175,000
1019,14	196,667
1019,30	240,625
1019,46	844,444
1019,62	366,667
1019,79	216,667
1019,95	4,167
1020,11	-200,000
1020,27	558,333
1020,43	-485,714
1020,60	-242,105
1020,76	-105,556
1020,92	250,000
1021,08	1000,000
1021,24	235,000
1021,41	26,471
1021,57	145,455
1021,73	-775,000
1021,89	-135,714
1022,05	1275,000
1022,21	125,641
1022,38	-150,000
1022,54	1850,000
1022,70	-113,636
1022,86	2500,000
1023,02	-223,529
1023,19	-511,111
1023,35	125,806
1023,51	39,286
1023,67	166,667
1023,83	166,667
1023,99	111,111
1024,16	169,048
1024,32	16,000
1024,48	59,091
1024,64	377,778
1024,80	-97,222
1024,96	65,517
1025,12	-114,286
1025,29	114,286
1025,45	130,556
1025,61	-1700,000
1025,77	-106,452
1025,93	340,000
1026,09	158,537
1026,26	105,263
1026,42	-60,417
1026,58	26,087
1026,74	329,167
1026,90	238,889
1027,06	23,077
1027,22	-252,174
1027,38	117,391
1027,55	100,000
1027,71	170,000
1027,87	50,000
1028,03	-137,500
1028,19	-117,647
1028,35	-828,571
1028,51	244,000
1028,67	111,765
1028,83	113,333
1029,00	200,000
1029,16	67,568
1029,32	107,143
1029,48	-157,143
1029,64	-130,769
1029,80	122,727
1029,96	833,333
1030,12	78,947
1030,28	-900,000
1030,44	460,000
1030,61	-22,727
1030,77	-633,333
1030,93	-118,750
1031,09	0,000
1031,25	0,000
1031,41	280,000
1031,57	-1375,000
1031,73	-1025,000
1031,89	59,091
1032,05	-34,884
1032,21	42,424
1032,37	101,786
1032,53	65,517
1032,69	23,077
1032,86	-133,333
1033,02	-411,111
1033,18	291,667
1033,34	-0,000
1033,50	187,500
1033,66	-48,000
1033,82	111,111
1033,98	1500,000
1034,14	-292,857
1034,30	-166,667
1034,46	150,000
1034,62	69,231
1034,78	-143,478
1034,94	225,806
1035,10	-261,538
1035,26	655,556
1035,42	6,667
1035,58	75,000
1035,74	128,378
1035,90	481,250
1036,06	98,039
1036,22	87,879
1036,38	-275,000
1036,54	-143,750
1036,70	-6,452
1036,86	10,000
1037,02	-85,714
1037,18	-0,000
1037,34	355,556
1037,50	-480,000
1037,66	-700,000
1037,82	109,524
1037,98	237,500
1038,14	-775,000
1038,30	100,000
1038,46	-228,571
1038,62	-66,667
1038,78	-228,571
1038,94	320,000
1039,10	72,000
1039,26	25,000
1039,42	221,739
1039,58	-675,000
1039,74	-500,000
1039,90	-125,000
1040,06	38,462
>>>>>End Processed Spectral Data<<<<<
