SpectraSuite Data File
++++++++++++++++++++++++++++++++++++
Date: Tue Jan 31 18:59:08 EET 2017
User: optolab
Dark Spectrum Present: Yes
Reference Spectrum Present: Yes
Number of Sampled Component Spectra: 1
Spectrometers: USB4C02475
Integration Time (usec): 100000 (USB4C02475)
Spectra Averaged: 1 (USB4C02475)
Boxcar Smoothing: 0 (USB4C02475)
Correct for Electrical Dark: No (USB4C02475)
Strobe/Lamp Enabled: No (USB4C02475)
Correct for Detector Non-linearity: No (USB4C02475)
Correct for Stray Light: No (USB4C02475)
Number of Pixels in Processed Spectrum: 3648
>>>>>Begin Processed Spectral Data<<<<<
344,91	338,462
345,13	338,462
345,35	338,462
345,57	0,000
345,79	316,667
346,00	300,000
346,22	-63,889
346,44	0,000
346,66	1125,000
346,87	616,667
347,09	-55,556
347,31	-833,333
347,53	-600,000
347,74	-353,846
347,96	223,810
348,18	2600,000
348,40	-307,143
348,61	71,429
348,83	158,537
349,05	78,571
349,27	247,368
349,48	34,615
349,70	452,941
349,92	75,610
350,14	433,333
350,35	121,951
350,57	111,429
350,79	200,000
351,01	438,462
351,22	-62,500
351,44	-416,667
351,66	84,615
351,87	47,436
352,09	121,212
352,31	406,250
352,53	180,000
352,74	23,810
352,96	81,395
353,18	44,444
353,40	39,130
353,61	90,000
353,83	-300,000
354,05	157,576
354,26	60,714
354,48	-850,000
354,70	4,878
354,92	90,909
355,13	167,647
355,35	0,000
355,57	86,111
355,78	79,412
356,00	223,529
356,22	0,000
356,44	7,692
356,65	110,606
356,87	292,857
357,09	156,667
357,30	87,302
357,52	160,714
357,74	-750,000
357,95	720,000
358,17	733,333
358,39	114,706
358,60	480,000
358,82	229,412
359,04	-162,500
359,26	93,750
359,47	86,957
359,69	-75,676
359,91	42,308
360,12	215,385
360,34	34,951
360,56	227,586
360,77	471,429
360,99	80,769
361,21	133,333
361,42	125,000
361,64	230,769
361,86	158,333
362,07	11,538
362,29	41,176
362,51	234,615
362,72	59,459
362,94	176,190
363,16	60,000
363,37	8,065
363,59	141,379
363,81	-116,667
364,02	81,176
364,24	308,696
364,46	151,351
364,67	91,111
364,89	275,000
365,11	1900,000
365,32	81,928
365,54	50,000
365,76	75,862
365,97	335,714
366,19	200,000
366,41	153,846
366,62	118,421
366,84	139,474
367,05	90,769
367,27	-55,556
367,49	158,537
367,70	387,500
367,92	119,355
368,14	3650,000
368,35	94,366
368,57	107,692
368,79	67,647
369,00	0,000
369,22	316,667
369,43	131,818
369,65	53,731
369,87	101,408
370,08	157,143
370,30	270,588
370,51	38,889
370,73	113,462
370,95	19,048
371,16	16,667
371,38	104,545
371,60	203,846
371,81	35,135
372,03	536,842
372,24	663,636
372,46	80,488
372,68	59,375
372,89	151,429
373,11	33,333
373,32	93,333
373,54	128,000
373,76	38,298
373,97	56,989
374,19	135,135
374,40	144,444
374,62	833,333
374,84	256,000
375,05	140,541
375,27	100,000
375,48	76,744
375,70	79,545
375,92	104,167
376,13	77,778
376,35	1700,000
376,56	16,000
376,78	66,667
376,99	93,506
377,21	-5000,000
377,43	29,167
377,64	92,105
377,86	154,348
378,07	20,000
378,29	-32,258
378,51	297,436
378,72	73,333
378,94	88,235
379,15	142,857
379,37	175,000
379,58	101,786
379,80	38,462
380,01	487,500
380,23	94,737
380,45	101,923
380,66	277,778
380,88	-900,000
381,09	97,143
381,31	40,580
381,52	105,556
381,74	50,746
381,95	107,317
382,17	100,000
382,39	90,909
382,60	361,538
382,82	265,714
383,03	109,615
383,25	62,821
383,46	121,951
383,68	62,500
383,89	280,000
384,11	56,818
384,32	12,500
384,54	124,444
384,76	4600,000
384,97	79,012
385,19	97,917
385,40	60,417
385,62	100,000
385,83	78,378
386,05	16,279
386,26	40,541
386,48	244,000
386,69	58,491
386,91	255,882
387,12	341,667
387,34	37,255
387,55	163,636
387,77	14,286
387,98	-857,143
388,20	135,484
388,41	117,949
388,63	188,372
388,84	75,385
389,06	30,769
389,27	71,429
389,49	134,375
389,70	76,190
389,92	57,812
390,13	-152,174
390,35	130,000
390,56	140,909
390,78	141,935
390,99	366,667
391,21	178,571
391,42	114,754
391,64	40,741
391,85	50,000
392,07	48,000
392,28	46,250
392,50	92,982
392,71	107,407
392,93	108,108
393,14	-73,684
393,36	221,875
393,57	82,353
393,79	69,697
394,00	20,000
394,22	63,636
394,43	95,000
394,65	600,000
394,86	81,818
395,08	91,781
395,29	113,953
395,50	243,750
395,72	63,889
395,93	175,000
396,15	66,197
396,36	67,925
396,58	237,037
396,79	52,727
397,01	54,217
397,22	283,333
397,44	-360,000
397,65	26,316
397,87	53,846
398,08	58,000
398,29	218,750
398,51	258,333
398,72	49,000
398,94	75,676
399,15	-20,408
399,37	47,436
399,58	341,935
399,80	-81,250
400,01	47,826
400,22	26,531
400,44	373,333
400,65	340,000
400,87	36,066
401,08	64,474
401,30	55,000
401,51	1,515
401,72	46,512
401,94	43,548
402,15	111,864
402,37	178,788
402,58	48,889
402,80	82,143
403,01	64,894
403,22	98,333
403,44	43,750
403,65	-136,364
403,87	53,846
404,08	12,308
404,30	27,586
404,51	92,857
404,72	140,244
404,94	151,429
405,15	46,377
405,37	70,833
405,58	72,727
405,79	113,924
406,01	76,636
406,22	36,585
406,44	23,469
406,65	75,342
406,86	46,465
407,08	191,667
407,29	34,831
407,51	56,122
407,72	118,519
407,93	88,591
408,15	50,000
408,36	59,259
408,58	45,528
408,79	76,344
409,00	53,409
409,22	70,330
409,43	38,202
409,64	16,667
409,86	57,447
410,07	57,407
410,29	70,787
410,50	51,370
410,71	86,047
410,93	74,118
411,14	75,000
411,35	58,621
411,57	49,515
411,78	31,754
412,00	90,395
412,21	56,069
412,42	49,510
412,64	45,833
412,85	78,756
413,06	53,659
413,28	66,286
413,49	35,795
413,70	62,094
413,92	67,416
414,13	62,548
414,34	49,315
414,56	43,548
414,77	59,091
414,98	62,985
415,20	44,473
415,41	40,752
415,63	35,976
415,84	53,988
416,05	51,699
416,27	48,551
416,48	54,750
416,69	42,271
416,91	48,577
417,12	45,538
417,33	48,931
417,55	48,678
417,76	51,215
417,97	45,129
418,19	45,645
418,40	42,287
418,61	47,513
418,83	42,832
419,04	40,650
419,25	43,954
419,46	47,956
419,68	44,936
419,89	47,478
420,10	40,452
420,32	45,754
420,53	43,664
420,74	46,816
420,96	39,748
421,17	53,302
421,38	48,079
421,60	50,746
421,81	52,043
422,02	49,495
422,23	55,908
422,45	46,891
422,66	52,203
422,87	52,704
423,09	52,726
423,30	55,772
423,51	55,112
423,73	54,829
423,94	59,393
424,15	56,213
424,36	61,460
424,58	63,042
424,79	64,638
425,00	69,312
425,22	74,237
425,43	73,681
425,64	70,217
425,85	68,877
426,07	64,144
426,28	67,955
426,49	63,500
426,71	60,238
426,92	60,290
427,13	57,512
427,34	54,949
427,56	57,423
427,77	55,992
427,98	57,691
428,19	55,369
428,41	59,804
428,62	57,683
428,83	56,917
429,04	56,586
429,26	58,288
429,47	55,941
429,68	55,593
429,89	53,817
430,11	55,237
430,32	53,641
430,53	53,164
430,74	52,220
430,96	52,175
431,17	52,506
431,38	52,441
431,59	50,780
431,81	51,205
432,02	53,975
432,23	51,410
432,44	53,808
432,66	53,432
432,87	53,038
433,08	52,133
433,29	52,974
433,51	53,794
433,72	55,352
433,93	53,156
434,14	54,406
434,35	55,011
434,57	53,798
434,78	54,777
434,99	55,966
435,20	53,748
435,42	53,379
435,63	51,540
435,84	51,027
436,05	48,869
436,26	48,288
436,48	45,777
436,69	46,305
436,90	42,952
437,11	43,232
437,32	42,562
437,54	41,533
437,75	41,812
437,96	43,296
438,17	43,513
438,38	43,491
438,60	44,420
438,81	45,981
439,02	46,171
439,23	48,443
439,44	49,818
439,66	51,524
439,87	51,500
440,08	51,773
440,29	50,265
440,50	49,555
440,72	49,537
440,93	47,214
441,14	47,249
441,35	45,716
441,56	42,647
441,77	41,868
441,99	39,645
442,20	38,034
442,41	35,784
442,62	35,394
442,83	33,959
443,04	31,986
443,26	31,097
443,47	27,943
443,68	26,080
443,89	23,769
444,10	21,950
444,31	19,587
444,53	18,451
444,74	16,713
444,95	14,754
445,16	12,815
445,37	11,523
445,58	9,643
445,80	8,350
446,01	7,754
446,22	6,590
446,43	5,912
446,64	5,337
446,85	4,465
447,06	4,410
447,28	3,996
447,49	3,345
447,70	3,197
447,91	3,083
448,12	2,637
448,33	2,348
448,54	2,129
448,76	1,641
448,97	1,924
449,18	1,418
449,39	1,439
449,60	1,185
449,81	1,327
450,02	0,623
450,23	0,724
450,45	0,596
450,66	0,578
450,87	0,431
451,08	0,444
451,29	0,469
451,50	0,333
451,71	0,484
451,92	0,213
452,13	0,450
452,35	0,401
452,56	0,248
452,77	0,305
452,98	0,427
453,19	0,355
453,40	0,312
453,61	0,376
453,82	0,307
454,03	0,693
454,25	0,170
454,46	0,314
454,67	0,371
454,88	0,319
455,09	0,283
455,30	0,444
455,51	0,304
455,72	0,389
455,93	0,272
456,14	0,151
456,35	-0,025
456,56	0,185
456,78	0,612
456,99	0,050
457,20	0,302
457,41	0,465
457,62	0,029
457,83	0,417
458,04	0,012
458,25	0,360
458,46	0,147
458,67	0,823
458,88	0,212
459,09	0,135
459,30	0,667
459,51	0,303
459,73	0,156
459,94	0,395
460,15	0,255
460,36	0,250
460,57	0,274
460,78	0,170
460,99	0,246
461,20	0,369
461,41	0,074
461,62	0,193
461,83	0,480
462,04	0,357
462,25	0,031
462,46	0,226
462,67	0,126
462,88	0,250
463,09	0,326
463,30	0,033
463,51	0,293
463,72	0,041
463,93	0,249
464,15	0,221
464,36	0,204
464,57	0,299
464,78	0,132
464,99	0,324
465,20	0,217
465,41	0,134
465,62	0,234
465,83	0,119
466,04	0,232
466,25	0,154
466,46	0,415
466,67	0,147
466,88	0,212
467,09	0,218
467,30	0,103
467,51	0,030
467,72	0,186
467,93	0,122
468,14	0,297
468,35	0,251
468,56	0,134
468,77	0,236
468,98	0,337
469,19	0,222
469,40	0,305
469,61	0,173
469,82	0,166
470,03	0,148
470,24	0,334
470,45	0,439
470,66	0,344
470,87	0,192
471,08	0,359
471,29	0,170
471,50	0,375
471,71	0,020
471,92	0,266
472,13	0,503
472,34	0,168
472,55	0,382
472,76	0,334
472,97	0,344
473,18	0,258
473,39	0,409
473,60	0,347
473,81	0,428
474,01	0,219
474,22	0,345
474,43	0,516
474,64	0,247
474,85	0,398
475,06	0,167
475,27	0,258
475,48	0,486
475,69	0,213
475,90	0,429
476,11	0,254
476,32	0,361
476,53	0,488
476,74	0,480
476,95	0,273
477,16	0,455
477,37	0,315
477,58	0,563
477,79	0,519
478,00	0,677
478,21	0,613
478,41	0,987
478,62	1,103
478,83	1,176
479,04	1,409
479,25	1,683
479,46	2,025
479,67	2,200
479,88	2,444
480,09	2,609
480,30	2,673
480,51	2,956
480,72	3,418
480,93	3,478
481,14	3,983
481,34	4,186
481,55	4,601
481,76	5,008
481,97	5,270
482,18	5,941
482,39	6,063
482,60	6,794
482,81	7,480
483,02	8,087
483,23	8,519
483,44	9,244
483,65	10,050
483,85	10,789
484,06	11,461
484,27	12,450
484,48	12,927
484,69	13,931
484,90	14,786
485,11	15,401
485,32	16,325
485,53	17,467
485,73	18,015
485,94	18,843
486,15	20,180
486,36	21,090
486,57	21,579
486,78	23,072
486,99	23,650
487,20	25,284
487,41	26,347
487,61	27,329
487,82	28,239
488,03	29,482
488,24	29,843
488,45	30,972
488,66	32,170
488,87	32,721
489,08	33,923
489,28	34,845
489,49	34,747
489,70	36,004
489,91	36,540
490,12	37,782
490,33	38,483
490,54	39,247
490,74	39,994
490,95	39,699
491,16	41,565
491,37	41,923
491,58	42,546
491,79	43,012
492,00	43,614
492,20	44,510
492,41	44,959
492,62	45,197
492,83	45,403
493,04	45,508
493,25	46,108
493,45	46,248
493,66	46,709
493,87	46,858
494,08	47,024
494,29	47,358
494,50	47,289
494,70	47,114
494,91	47,947
495,12	47,598
495,33	47,833
495,54	47,837
495,75	48,963
495,95	49,302
496,16	48,171
496,37	49,067
496,58	48,317
496,79	48,577
496,99	48,449
497,20	48,341
497,41	48,890
497,62	48,519
497,83	48,837
498,04	48,808
498,24	47,906
498,45	48,776
498,66	48,548
498,87	48,993
499,08	48,702
499,28	48,705
499,49	47,996
499,70	48,697
499,91	48,964
500,12	47,845
500,32	48,455
500,53	48,269
500,74	47,939
500,95	47,511
501,15	47,904
501,36	48,181
501,57	47,752
501,78	47,584
501,99	47,024
502,19	47,452
502,40	46,957
502,61	47,026
502,82	47,633
503,02	46,925
503,23	46,427
503,44	46,815
503,65	46,036
503,86	46,363
504,06	46,142
504,27	46,560
504,48	45,415
504,69	45,626
504,89	46,332
505,10	45,853
505,31	46,026
505,52	46,277
505,72	47,109
505,93	46,936
506,14	47,191
506,35	48,372
506,55	49,917
506,76	50,610
506,97	52,038
507,18	53,796
507,38	54,858
507,59	56,959
507,80	58,951
508,01	60,301
508,21	62,796
508,42	64,988
508,63	66,751
508,84	68,755
509,04	69,905
509,25	71,498
509,46	72,355
509,67	73,130
509,87	73,572
510,08	74,704
510,29	74,964
510,49	75,032
510,70	76,014
510,91	75,955
511,12	76,579
511,32	76,651
511,53	77,346
511,74	76,687
511,94	77,454
512,15	77,137
512,36	76,525
512,57	75,678
512,77	76,204
512,98	75,860
513,19	76,109
513,39	74,538
513,60	74,179
513,81	74,747
514,01	74,784
514,22	75,148
514,43	74,046
514,64	75,136
514,84	75,430
515,05	75,591
515,26	76,709
515,46	77,986
515,67	78,825
515,88	79,605
516,08	80,521
516,29	82,296
516,50	83,336
516,70	84,836
516,91	84,226
517,12	85,463
517,32	87,601
517,53	88,802
517,74	88,396
517,95	88,055
518,15	89,090
518,36	90,112
518,57	90,141
518,77	89,816
518,98	90,450
519,19	90,442
519,39	90,304
519,60	90,588
519,80	91,303
520,01	91,054
520,22	90,587
520,42	90,461
520,63	90,365
520,84	90,963
521,04	90,734
521,25	92,041
521,46	90,761
521,66	91,580
521,87	91,345
522,08	91,175
522,28	91,916
522,49	91,413
522,70	90,844
522,90	91,022
523,11	91,361
523,31	90,136
523,52	90,198
523,73	89,592
523,93	88,722
524,14	88,737
524,35	88,215
524,55	88,611
524,76	87,515
524,97	88,124
525,17	87,717
525,38	87,607
525,58	87,122
525,79	88,273
526,00	87,834
526,20	87,506
526,41	87,994
526,61	88,490
526,82	88,380
527,03	88,153
527,23	87,430
527,44	88,279
527,64	88,217
527,85	86,848
528,06	86,333
528,26	86,084
528,47	86,625
528,68	85,743
528,88	85,632
529,09	84,930
529,29	84,393
529,50	83,427
529,70	83,238
529,91	83,068
530,12	82,845
530,32	83,361
530,53	81,511
530,73	82,650
530,94	82,284
531,15	81,711
531,35	81,216
531,56	81,551
531,76	80,098
531,97	80,667
532,17	80,178
532,38	80,762
532,59	78,853
532,79	78,107
533,00	78,363
533,20	77,472
533,41	77,710
533,61	76,212
533,82	74,928
534,03	73,832
534,23	72,632
534,44	71,470
534,64	69,085
534,85	67,447
535,05	66,425
535,26	63,861
535,46	61,466
535,67	59,521
535,88	57,108
536,08	54,249
536,29	52,123
536,49	48,783
536,70	45,175
536,90	42,667
537,11	40,104
537,31	37,096
537,52	33,773
537,72	30,818
537,93	28,121
538,13	25,217
538,34	23,077
538,55	20,262
538,75	18,674
538,96	16,358
539,16	14,535
539,37	12,728
539,57	11,509
539,78	10,170
539,98	8,512
540,19	7,889
540,39	6,951
540,60	6,326
540,80	5,394
541,01	5,153
541,21	4,491
541,42	4,003
541,62	3,618
541,83	3,268
542,03	2,921
542,24	2,571
542,44	1,999
542,65	1,887
542,85	1,835
543,06	1,560
543,26	1,441
543,47	1,245
543,67	1,167
543,88	0,824
544,08	0,938
544,29	0,859
544,49	0,915
544,70	0,711
544,90	0,493
545,11	0,799
545,31	0,746
545,52	0,490
545,72	0,628
545,93	0,469
546,13	0,542
546,34	0,563
546,54	0,377
546,75	0,599
546,95	0,368
547,15	0,370
547,36	0,517
547,56	0,341
547,77	0,435
547,97	0,268
548,18	0,182
548,38	0,279
548,59	0,218
548,79	0,168
549,00	0,156
549,20	0,302
549,41	0,148
549,61	0,285
549,81	0,148
550,02	0,190
550,22	0,230
550,43	0,322
550,63	0,205
550,84	0,110
551,04	0,301
551,25	0,267
551,45	0,400
551,65	0,400
551,86	0,135
552,06	0,372
552,27	0,365
552,47	0,375
552,68	0,304
552,88	0,263
553,08	0,408
553,29	0,078
553,49	0,192
553,70	0,138
553,90	0,173
554,11	0,299
554,31	0,329
554,51	0,155
554,72	0,220
554,92	0,242
555,13	0,240
555,33	0,119
555,53	0,295
555,74	0,365
555,94	0,258
556,15	0,319
556,35	0,207
556,56	0,248
556,76	0,208
556,96	0,181
557,17	0,195
557,37	0,389
557,58	0,296
557,78	0,319
557,98	0,293
558,19	0,196
558,39	0,156
558,59	0,470
558,80	0,377
559,00	0,383
559,21	0,360
559,41	0,214
559,61	0,256
559,82	0,242
560,02	0,469
560,23	0,370
560,43	0,602
560,63	0,434
560,84	0,355
561,04	0,394
561,24	0,710
561,45	0,802
561,65	0,661
561,85	0,698
562,06	1,106
562,26	1,127
562,47	1,250
562,67	1,457
562,87	1,730
563,08	1,988
563,28	2,449
563,48	2,844
563,69	3,140
563,89	3,400
564,09	4,146
564,30	4,479
564,50	4,965
564,70	5,671
564,91	6,209
565,11	6,949
565,31	7,658
565,52	8,671
565,72	9,210
565,92	9,899
566,13	10,997
566,33	11,840
566,53	12,541
566,74	13,628
566,94	14,177
567,14	14,946
567,35	15,577
567,55	16,406
567,75	16,898
567,96	17,745
568,16	18,578
568,36	19,434
568,57	20,097
568,77	20,755
568,97	21,290
569,18	22,079
569,38	22,290
569,58	22,972
569,79	23,628
569,99	24,062
570,19	24,375
570,39	24,816
570,60	25,018
570,80	25,366
571,00	25,609
571,21	26,351
571,41	27,195
571,61	27,172
571,82	28,218
572,02	28,191
572,22	28,998
572,42	29,592
572,63	29,926
572,83	30,165
573,03	30,905
573,24	31,946
573,44	31,888
573,64	32,982
573,84	32,967
574,05	33,756
574,25	34,374
574,45	34,549
574,66	34,786
574,86	35,546
575,06	35,307
575,26	36,233
575,47	36,525
575,67	35,987
575,87	36,551
576,07	36,499
576,28	36,982
576,48	36,570
576,68	37,136
576,88	37,039
577,09	37,431
577,29	37,530
577,49	37,847
577,69	37,722
577,90	37,990
578,10	38,223
578,30	38,070
578,50	38,427
578,71	38,889
578,91	38,972
579,11	39,320
579,31	39,181
579,52	39,857
579,72	39,584
579,92	39,707
580,12	40,453
580,33	40,477
580,53	40,677
580,73	40,790
580,93	40,836
581,13	40,688
581,34	41,167
581,54	40,857
581,74	41,069
581,94	41,877
582,15	42,012
582,35	41,884
582,55	42,287
582,75	42,605
582,95	43,144
583,16	43,163
583,36	43,808
583,56	44,199
583,76	43,567
583,96	43,935
584,17	44,331
584,37	44,625
584,57	45,375
584,77	45,451
584,97	45,152
585,18	45,866
585,38	45,698
585,58	45,913
585,78	46,153
585,98	45,781
586,19	46,195
586,39	45,921
586,59	45,712
586,79	46,388
586,99	46,130
587,20	46,083
587,40	45,772
587,60	45,485
587,80	46,012
588,00	46,897
588,20	46,539
588,41	45,987
588,61	45,717
588,81	45,892
589,01	46,267
589,21	46,128
589,41	46,737
589,62	46,244
589,82	47,098
590,02	46,477
590,22	46,453
590,42	46,732
590,62	46,886
590,83	47,345
591,03	47,574
591,23	47,873
591,43	47,942
591,63	48,381
591,83	48,964
592,03	49,467
592,24	49,650
592,44	50,358
592,64	51,564
592,84	52,689
593,04	53,134
593,24	53,679
593,44	54,849
593,65	56,602
593,85	58,431
594,05	58,452
594,25	60,352
594,45	61,679
594,65	62,196
594,85	63,340
595,06	64,684
595,26	65,761
595,46	65,819
595,66	65,917
595,86	66,867
596,06	67,165
596,26	67,207
596,46	66,446
596,66	67,138
596,87	66,268
597,07	66,661
597,27	66,835
597,47	66,816
597,67	66,252
597,87	66,404
598,07	66,244
598,27	66,074
598,47	67,381
598,67	66,159
598,88	67,134
599,08	67,081
599,28	67,368
599,48	66,992
599,68	67,506
599,88	67,399
600,08	67,587
600,28	68,221
600,48	68,298
600,68	68,026
600,88	68,205
601,09	68,532
601,29	68,853
601,49	68,578
601,69	68,974
601,89	68,262
602,09	67,709
602,29	68,279
602,49	67,732
602,69	68,674
602,89	68,371
603,09	68,192
603,29	67,878
603,49	68,175
603,69	68,474
603,90	68,893
604,10	69,124
604,30	68,965
604,50	69,737
604,70	70,539
604,90	70,318
605,10	70,406
605,30	71,088
605,50	71,492
605,70	73,410
605,90	72,547
606,10	73,077
606,30	73,763
606,50	74,556
606,70	74,140
606,90	75,448
607,10	75,731
607,30	76,291
607,50	76,685
607,70	77,997
607,90	77,838
608,10	78,475
608,30	79,175
608,50	78,483
608,70	79,862
608,90	79,852
609,11	81,551
609,31	80,824
609,51	82,083
609,71	82,558
609,91	82,964
610,11	82,623
610,31	83,643
610,51	83,437
610,71	83,872
610,91	83,400
611,11	83,959
611,31	83,745
611,51	84,079
611,71	84,039
611,91	82,847
612,11	82,215
612,31	82,126
612,51	81,669
612,71	80,150
612,91	77,829
613,11	78,443
613,31	76,585
613,51	75,319
613,71	73,410
613,91	72,345
614,11	71,797
614,31	69,570
614,50	68,087
614,70	67,089
614,90	66,066
615,10	63,734
615,30	62,976
615,50	60,657
615,70	59,954
615,90	58,251
616,10	56,923
616,30	56,151
616,50	55,779
616,70	55,024
616,90	54,354
617,10	52,781
617,30	52,603
617,50	50,971
617,70	50,648
617,90	50,542
618,10	49,462
618,30	48,053
618,50	47,411
618,70	46,460
618,90	45,978
619,10	45,484
619,30	45,004
619,49	43,142
619,69	42,369
619,89	41,699
620,09	39,818
620,29	38,813
620,49	37,540
620,69	36,545
620,89	35,227
621,09	34,125
621,29	32,172
621,49	30,525
621,69	28,746
621,89	26,942
622,09	24,336
622,29	23,349
622,48	20,979
622,68	19,647
622,88	17,882
623,08	15,943
623,28	13,969
623,48	12,480
623,68	10,908
623,88	9,373
624,08	8,585
624,28	7,257
624,48	6,192
624,67	5,340
624,87	4,469
625,07	4,017
625,27	3,410
625,47	2,890
625,67	2,526
625,87	2,180
626,07	1,661
626,27	1,546
626,47	1,419
626,66	1,115
626,86	1,043
627,06	0,859
627,26	0,612
627,46	0,468
627,66	0,672
627,86	0,508
628,06	0,332
628,25	0,209
628,45	0,375
628,65	0,243
628,85	0,288
629,05	0,241
629,25	0,410
629,45	0,292
629,65	0,253
629,84	0,225
630,04	0,174
630,24	0,241
630,44	0,134
630,64	0,206
630,84	0,294
631,04	0,246
631,23	0,218
631,43	0,228
631,63	0,241
631,83	0,273
632,03	0,179
632,23	0,151
632,42	0,168
632,62	0,189
632,82	0,359
633,02	0,024
633,22	0,008
633,42	0,186
633,62	0,139
633,81	0,115
634,01	0,130
634,21	0,230
634,41	0,286
634,61	0,139
634,80	0,217
635,00	0,187
635,20	0,205
635,40	0,221
635,60	0,105
635,80	0,213
635,99	0,259
636,19	0,191
636,39	0,255
636,59	0,258
636,79	0,216
636,98	0,005
637,18	0,161
637,38	0,099
637,58	0,005
637,78	-0,011
637,97	0,156
638,17	0,093
638,37	0,088
638,57	0,134
638,77	0,303
638,96	0,141
639,16	0,102
639,36	0,199
639,56	0,442
639,76	0,174
639,95	0,000
640,15	0,255
640,35	-0,018
640,55	0,114
640,75	0,097
640,94	0,337
641,14	0,179
641,34	-0,031
641,54	0,050
641,73	0,390
641,93	0,145
642,13	-0,019
642,33	0,134
642,53	0,128
642,72	0,122
642,92	0,293
643,12	0,007
643,32	0,138
643,51	0,000
643,71	0,144
643,91	0,365
644,11	0,204
644,30	0,061
644,50	0,129
644,70	0,082
644,90	0,167
645,09	0,159
645,29	0,278
645,49	0,401
645,69	0,268
645,88	-0,114
646,08	0,249
646,28	-0,029
646,48	0,322
646,67	0,255
646,87	0,146
647,07	0,205
647,26	-0,007
647,46	-0,231
647,66	0,045
647,86	-0,089
648,05	0,296
648,25	0,384
648,45	-0,134
648,65	0,419
648,84	-0,084
649,04	-0,106
649,24	0,215
649,43	-0,076
649,63	0,333
649,83	0,094
650,03	-0,118
650,22	0,055
650,42	-0,024
650,62	0,016
650,81	0,514
651,01	-0,119
651,21	-0,047
651,40	-0,293
651,60	-0,008
651,80	0,281
652,00	0,073
652,19	0,303
652,39	0,373
652,59	0,325
652,78	0,267
652,98	-0,041
653,18	0,483
653,37	0,417
653,57	0,377
653,77	0,215
653,96	0,156
654,16	0,107
654,36	0,264
654,55	0,424
654,75	0,301
654,95	0,242
655,14	-0,050
655,34	0,119
655,54	0,000
655,73	0,102
655,93	0,291
656,13	0,068
656,32	0,291
656,52	0,035
656,72	0,199
656,91	0,111
657,11	0,379
657,31	0,484
657,50	0,290
657,70	0,102
657,90	0,026
658,09	0,136
658,29	0,110
658,49	0,493
658,68	0,252
658,88	0,120
659,07	0,530
659,27	0,017
659,47	0,163
659,66	0,026
659,86	0,170
660,06	-0,101
660,25	0,051
660,45	-0,042
660,64	0,168
660,84	0,101
661,04	0,318
661,23	0,151
661,43	0,235
661,63	0,210
661,82	0,219
662,02	0,311
662,21	0,142
662,41	0,133
662,61	-0,008
662,80	0,184
663,00	-0,194
663,19	-0,067
663,39	0,444
663,59	0,185
663,78	-0,124
663,98	0,132
664,17	0,245
664,37	0,281
664,57	0,375
664,76	0,257
664,96	0,105
665,15	0,049
665,35	0,008
665,55	0,185
665,74	0,114
665,94	-0,269
666,13	0,040
666,33	0,128
666,53	-0,064
666,72	-0,016
666,92	0,159
667,11	0,063
667,31	0,125
667,50	0,293
667,70	-0,008
667,90	-0,070
668,09	-0,008
668,29	0,193
668,48	-0,228
668,68	0,054
668,87	0,008
669,07	0,091
669,26	0,232
669,46	0,045
669,66	0,015
669,85	0,113
670,05	-0,148
670,24	0,000
670,44	0,510
670,63	0,297
670,83	0,204
671,02	0,116
671,22	0,522
671,42	0,355
671,61	0,022
671,81	-0,115
672,00	0,042
672,20	0,266
672,39	0,242
672,59	0,159
672,78	0,222
672,98	-0,041
673,17	0,115
673,37	0,232
673,56	0,209
673,76	0,259
673,95	-0,054
674,15	-0,120
674,34	-0,020
674,54	0,013
674,73	0,110
674,93	-0,136
675,13	0,032
675,32	0,058
675,52	0,299
675,71	0,284
675,91	0,276
676,10	0,379
676,30	-0,037
676,49	0,136
676,69	0,117
676,88	0,116
677,08	-0,066
677,27	-0,102
677,47	0,071
677,66	0,047
677,86	0,141
678,05	-0,076
678,24	-0,255
678,44	-0,035
678,63	-0,324
678,83	0,138
679,02	0,277
679,22	0,084
679,41	0,061
679,61	0,253
679,80	0,077
680,00	0,217
680,19	-0,103
680,39	0,101
680,58	-0,058
680,78	0,212
680,97	0,095
681,17	-0,093
681,36	-0,067
681,56	-0,081
681,75	0,136
681,94	0,090
682,14	0,219
682,33	0,227
682,53	-0,029
682,72	0,252
682,92	-0,111
683,11	-0,048
683,31	-0,038
683,50	0,109
683,69	-0,009
683,89	0,019
684,08	-0,028
684,28	0,105
684,47	-0,086
684,67	-0,329
684,86	-0,080
685,06	0,151
685,25	0,004
685,44	0,162
685,64	0,078
685,83	-0,013
686,03	0,150
686,22	0,030
686,42	-0,231
686,61	0,075
686,80	0,050
687,00	0,070
687,19	0,229
687,39	-0,110
687,58	-0,045
687,77	-0,004
687,97	0,028
688,16	-0,028
688,36	0,138
688,55	-0,047
688,74	-0,077
688,94	0,109
689,13	-0,008
689,33	-0,019
689,52	-0,209
689,71	0,015
689,91	0,019
690,10	0,179
690,30	0,133
690,49	0,044
690,68	-0,084
690,88	0,051
691,07	0,007
691,27	0,097
691,46	-0,022
691,65	0,083
691,85	-0,065
692,04	-0,152
692,23	-0,050
692,43	-0,159
692,62	0,014
692,82	0,160
693,01	0,097
693,20	-0,055
693,40	-0,007
693,59	-0,084
693,78	-0,174
693,98	-0,019
694,17	0,034
694,36	0,072
694,56	-0,142
694,75	0,008
694,94	0,035
695,14	0,120
695,33	0,061
695,53	-0,205
695,72	-0,017
695,91	0,105
696,11	0,086
696,30	-0,026
696,49	0,143
696,69	0,143
696,88	0,371
697,07	0,145
697,27	-0,049
697,46	-0,066
697,65	-0,031
697,85	-0,053
698,04	0,060
698,23	-0,329
698,43	0,148
698,62	-0,054
698,81	0,289
699,01	0,153
699,20	0,110
699,39	0,100
699,58	0,083
699,78	0,164
699,97	0,007
700,16	-0,280
700,36	0,247
700,55	0,410
700,74	-0,309
700,94	0,145
701,13	0,265
701,32	0,415
701,52	0,302
701,71	0,582
701,90	0,000
702,09	-0,164
702,29	0,449
702,48	0,032
702,67	0,514
702,87	0,023
703,06	-0,105
703,25	0,269
703,44	0,320
703,64	0,013
703,83	0,546
704,02	-0,451
704,22	0,382
704,41	0,618
704,60	0,534
704,79	-0,364
704,99	0,527
705,18	0,128
705,37	1,250
705,56	0,153
705,76	1,111
705,95	0,791
706,14	0,602
706,33	-0,093
706,53	1,323
706,72	0,937
706,91	-0,268
707,11	0,120
707,30	0,571
707,49	1,741
707,68	1,688
707,88	0,023
708,07	0,371
708,26	1,079
708,45	0,789
708,64	0,683
708,84	0,050
709,03	1,191
709,22	1,215
709,41	0,647
709,61	-0,056
709,80	0,028
709,99	0,599
710,18	0,000
710,38	1,203
710,57	1,315
710,76	0,931
710,95	1,085
711,14	1,758
711,34	1,253
711,53	0,538
711,72	0,408
711,91	0,480
712,11	0,221
712,30	0,504
712,49	1,331
712,68	0,309
712,87	0,156
713,07	0,944
713,26	1,049
713,45	-1,195
713,64	1,761
713,83	2,742
714,03	1,418
714,22	-2,614
714,41	0,223
714,60	0,701
714,79	0,579
714,99	2,414
715,18	0,094
715,37	0,291
715,56	1,714
715,75	1,041
715,94	2,492
716,14	-0,577
716,33	0,777
716,52	2,652
716,71	-0,434
716,90	0,105
717,10	3,018
717,29	2,466
717,48	0,964
717,67	0,847
717,86	-0,686
718,05	2,419
718,24	1,793
718,44	2,749
718,63	2,491
718,82	3,266
719,01	1,168
719,20	1,202
719,39	2,640
719,59	1,267
719,78	0,896
719,97	2,290
720,16	-1,891
720,35	1,565
720,54	4,099
720,73	1,421
720,93	2,994
721,12	-1,801
721,31	3,207
721,50	3,977
721,69	1,083
721,88	4,313
722,07	3,033
722,27	0,467
722,46	-3,639
722,65	2,430
722,84	4,499
723,03	-0,157
723,22	0,976
723,41	1,774
723,60	-3,535
723,79	5,505
723,99	3,896
724,18	3,339
724,37	0,709
724,56	0,872
724,75	2,589
724,94	3,826
725,13	2,208
725,32	5,140
725,51	4,122
725,71	3,787
725,90	3,081
726,09	2,186
726,28	2,448
726,47	4,871
726,66	0,876
726,85	4,187
727,04	5,181
727,23	4,687
727,42	5,478
727,61	3,846
727,81	4,334
728,00	4,213
728,19	1,164
728,38	3,312
728,57	4,086
728,76	9,147
728,95	5,246
729,14	7,824
729,33	6,202
729,52	9,836
729,71	3,842
729,90	0,349
730,09	4,024
730,28	5,437
730,48	8,232
730,67	7,882
730,86	4,614
731,05	0,123
731,24	-0,942
731,43	8,442
731,62	4,444
731,81	3,089
732,00	7,846
732,19	5,013
732,38	7,636
732,57	5,905
732,76	2,388
732,95	5,263
733,14	4,884
733,33	1,944
733,52	2,304
733,71	5,718
733,90	4,426
734,09	4,940
734,28	10,630
734,47	1,765
734,66	10,379
734,85	7,616
735,04	14,060
735,23	10,111
735,42	5,532
735,61	4,432
735,81	2,415
736,00	6,165
736,19	4,498
736,38	4,812
736,57	4,747
736,76	10,162
736,95	10,686
737,14	15,951
737,33	4,673
737,52	10,182
737,71	17,683
737,90	11,022
738,09	9,828
738,28	11,201
738,47	15,916
738,66	18,983
738,85	13,858
739,04	13,366
739,22	17,839
739,41	16,579
739,60	18,312
739,79	21,137
739,98	25,424
740,17	21,622
740,36	35,606
740,55	26,958
740,74	17,100
740,93	20,573
741,12	23,356
741,31	16,973
741,50	24,390
741,69	21,072
741,88	30,298
742,07	21,555
742,26	30,019
742,45	30,072
742,64	24,898
742,83	30,989
743,02	25,100
743,21	31,151
743,40	29,885
743,59	31,041
743,78	9,705
743,97	36,243
744,16	22,414
744,34	26,653
744,53	30,603
744,72	30,361
744,91	28,953
745,10	30,345
745,29	33,568
745,48	24,236
745,67	30,222
745,86	29,046
746,05	33,781
746,24	34,052
746,43	32,880
746,62	37,673
746,81	25,592
747,00	31,250
747,18	25,909
747,37	36,136
747,56	45,767
747,75	25,064
747,94	48,485
748,13	35,047
748,32	35,366
748,51	37,705
748,70	38,849
748,89	33,333
749,08	35,222
749,26	39,200
749,45	39,110
749,64	26,098
749,83	29,484
750,02	35,121
750,21	39,062
750,40	30,343
750,59	30,585
750,78	29,398
750,96	35,661
751,15	37,802
751,34	35,135
751,53	46,667
751,72	44,504
751,91	38,845
752,10	32,394
752,29	36,522
752,47	39,943
752,66	34,320
752,85	43,386
753,04	32,162
753,23	45,367
753,42	36,658
753,61	32,219
753,80	32,132
753,98	43,438
754,17	29,178
754,36	43,137
754,55	42,345
754,74	44,595
754,93	41,290
755,12	39,077
755,30	18,450
755,49	35,191
755,68	36,986
755,87	40,614
756,06	33,429
756,25	24,752
756,43	35,971
756,62	41,516
756,81	41,176
757,00	43,681
757,19	53,374
757,38	48,860
757,56	20,608
757,75	29,008
757,94	18,103
758,13	21,975
758,32	24,621
758,51	46,452
758,69	23,718
758,88	43,607
759,07	56,940
759,26	19,728
759,45	39,643
759,63	20,949
759,82	28,102
760,01	29,514
760,20	31,022
760,39	47,126
760,57	13,734
760,76	17,939
760,95	18,008
761,14	14,231
761,33	30,469
761,51	34,074
761,70	28,276
761,89	39,147
762,08	35,776
762,27	-1,442
762,45	30,189
762,64	26,106
762,83	36,059
763,02	29,066
763,21	25,000
763,39	16,742
763,58	22,449
763,77	13,298
763,96	36,257
764,14	9,544
764,33	44,737
764,52	8,929
764,71	28,571
764,89	20,946
765,08	33,333
765,27	20,297
765,46	29,091
765,65	28,934
765,83	31,905
766,02	27,473
766,21	29,114
766,40	56,279
766,58	38,462
766,77	33,898
766,96	41,026
767,15	14,493
767,33	20,673
767,52	32,227
767,71	41,111
767,90	30,833
768,08	51,502
768,27	23,721
768,46	30,000
768,64	28,641
768,83	32,432
769,02	30,476
769,21	27,604
769,39	13,423
769,58	41,500
769,77	25,543
769,96	24,503
770,14	26,336
770,33	29,947
770,52	26,282
770,70	26,238
770,89	29,082
771,08	40,104
771,27	27,835
771,45	42,775
771,64	61,842
771,83	33,871
772,01	29,771
772,20	35,859
772,39	45,860
772,57	44,792
772,76	45,517
772,95	6,091
773,14	47,674
773,32	42,308
773,51	27,907
773,70	39,073
773,88	33,166
774,07	37,238
774,26	35,976
774,44	37,186
774,63	40,506
774,82	53,012
775,00	37,555
775,19	44,253
775,38	14,667
775,56	36,585
775,75	19,162
775,94	42,537
776,12	36,667
776,31	52,695
776,50	27,273
776,68	50,617
776,87	15,385
777,06	18,493
777,24	16,393
777,43	46,341
777,62	46,667
777,80	43,478
777,99	19,108
778,18	53,503
778,36	36,641
778,55	28,148
778,74	23,485
778,92	53,394
779,11	50,968
779,29	21,569
779,48	13,223
779,67	39,568
779,85	37,600
780,04	55,634
780,23	27,273
780,41	15,882
780,60	38,596
780,79	13,889
780,97	27,143
781,16	44,000
781,34	9,848
781,53	64,744
781,72	72,222
781,90	63,462
782,09	57,377
782,28	33,333
782,46	15,447
782,65	22,378
782,83	47,328
783,02	44,800
783,21	74,419
783,39	33,974
783,58	65,333
783,76	47,297
783,95	35,762
784,14	22,105
784,32	73,394
784,51	57,303
784,69	59,236
784,88	56,129
785,06	43,262
785,25	40,602
785,44	60,135
785,62	63,571
785,81	50,000
785,99	29,932
786,18	46,721
786,37	63,448
786,55	30,597
786,74	72,671
786,92	22,093
787,11	44,000
787,29	80,000
787,48	44,000
787,67	51,020
787,85	-39,063
788,04	39,726
788,22	73,148
788,41	53,947
788,59	96,599
788,78	66,667
788,96	92,381
789,15	63,115
789,34	28,049
789,52	26,119
789,71	36,508
789,89	34,211
790,08	31,373
790,26	53,175
790,45	55,474
790,63	46,711
790,82	29,839
791,00	44,444
791,19	62,857
791,38	53,425
791,56	31,579
791,75	17,568
791,93	35,294
792,12	43,182
792,30	48,684
792,49	36,449
792,67	38,571
792,86	86,486
793,04	41,270
793,23	78,289
793,41	49,677
793,60	53,165
793,78	57,047
793,97	75,000
794,15	61,438
794,34	47,959
794,52	79,070
794,71	64,198
794,89	55,714
795,08	60,256
795,26	45,000
795,45	47,872
795,63	45,912
795,82	72,269
796,00	81,538
796,19	106,494
796,37	59,322
796,56	90,741
796,74	86,719
796,93	39,496
797,11	40,833
797,30	90,840
797,48	68,531
797,67	65,323
797,85	50,000
798,04	63,063
798,22	36,691
798,41	96,610
798,59	64,286
798,77	84,615
798,96	74,194
799,14	77,778
799,33	76,106
799,51	85,149
799,70	85,714
799,88	53,211
800,07	63,309
800,25	80,153
800,44	88,119
800,62	69,784
800,80	26,136
800,99	56,410
801,17	61,379
801,36	58,333
801,54	92,248
801,73	51,515
801,91	84,270
802,10	49,412
802,28	44,094
802,46	53,226
802,65	54,305
802,83	30,579
803,02	66,327
803,20	74,576
803,39	50,459
803,57	37,324
803,75	37,143
803,94	75,000
804,12	47,205
804,31	95,192
804,49	49,677
804,67	36,036
804,86	65,217
805,04	34,884
805,23	39,416
805,41	36,275
805,59	36,747
805,78	66,429
805,96	76,506
806,15	59,200
806,33	-2,920
806,51	66,667
806,70	27,907
806,88	55,455
807,07	54,098
807,25	69,565
807,43	5,556
807,62	46,875
807,80	48,171
807,99	48,201
808,17	59,722
808,35	40,566
808,54	40,782
808,72	33,974
808,90	48,780
809,09	43,066
809,27	71,845
809,46	36,449
809,64	45,087
809,82	51,724
810,01	39,785
810,19	10,000
810,37	59,659
810,56	31,126
810,74	62,264
810,92	34,507
811,11	74,233
811,29	42,236
811,48	53,043
811,66	40,609
811,84	44,915
812,03	18,243
812,21	71,515
812,39	58,065
812,58	49,708
812,76	46,715
812,94	25,503
813,13	38,415
813,31	41,799
813,49	44,000
813,68	44,262
813,86	32,051
814,04	54,955
814,23	23,846
814,41	30,822
814,59	25,490
814,78	65,772
814,96	54,749
815,14	46,734
815,33	58,678
815,51	40,157
815,69	35,878
815,87	34,839
816,06	60,697
816,24	35,948
816,42	36,905
816,61	46,296
816,79	34,104
816,97	55,769
817,16	55,357
817,34	46,471
817,52	41,121
817,70	51,813
817,89	41,627
818,07	54,000
818,25	36,076
818,44	44,920
818,62	52,970
818,80	30,769
818,98	28,718
819,17	38,559
819,35	24,161
819,53	54,359
819,72	29,730
819,90	44,889
820,08	50,990
820,26	26,484
820,45	31,720
820,63	44,444
820,81	33,486
820,99	51,965
821,18	44,578
821,36	23,750
821,54	30,348
821,73	32,240
821,91	41,549
822,09	55,621
822,27	53,307
822,46	25,123
822,64	20,526
822,82	39,594
823,00	63,874
823,19	34,286
823,37	57,265
823,55	48,523
823,73	27,528
823,91	40,642
824,10	57,292
824,28	38,430
824,46	33,553
824,64	52,768
824,83	34,123
825,01	28,824
825,19	42,358
825,37	28,922
825,56	33,588
825,74	51,515
825,92	53,307
826,10	45,374
826,28	29,520
826,47	36,965
826,65	38,489
826,83	46,053
827,01	46,063
827,19	56,202
827,38	43,071
827,56	65,000
827,74	23,697
827,92	31,220
828,10	23,958
828,29	35,424
828,47	30,292
828,65	36,719
828,83	33,333
829,01	43,243
829,20	36,538
829,38	40,164
829,56	37,037
829,74	36,923
829,92	46,154
830,10	29,614
830,29	53,257
830,47	41,791
830,65	45,188
830,83	48,639
831,01	21,525
831,20	21,533
831,38	42,020
831,56	41,404
831,74	48,814
831,92	46,520
832,10	44,304
832,29	37,809
832,47	37,943
832,65	48,197
832,83	37,975
833,01	31,118
833,19	35,227
833,37	48,632
833,56	41,667
833,74	48,197
833,92	46,959
834,10	44,277
834,28	39,373
834,46	43,931
834,64	57,067
834,83	32,011
835,01	46,475
835,19	65,603
835,37	56,780
835,55	47,592
835,73	40,678
835,91	43,068
836,09	49,342
836,28	42,683
836,46	45,723
836,64	41,732
836,82	43,407
837,00	46,645
837,18	43,667
837,36	54,252
837,54	44,262
837,72	41,013
837,91	50,708
838,09	54,545
838,27	44,301
838,45	55,616
838,63	53,521
838,81	45,897
838,99	57,029
839,17	52,174
839,35	50,790
839,53	48,214
839,72	47,527
839,90	53,556
840,08	45,412
840,26	53,806
840,44	46,819
840,62	51,752
840,80	58,242
840,98	49,664
841,16	55,707
841,34	42,484
841,52	42,391
841,70	45,906
841,89	53,531
842,07	48,276
842,25	54,717
842,43	53,285
842,61	52,955
842,79	47,392
842,97	52,860
843,15	40,292
843,33	45,062
843,51	43,696
843,69	42,578
843,87	51,008
844,05	55,940
844,23	48,233
844,41	55,467
844,59	42,324
844,77	43,299
844,95	47,403
845,13	52,000
845,31	51,670
845,50	51,967
845,68	49,893
845,86	59,350
846,04	46,221
846,22	52,281
846,40	38,843
846,58	59,761
846,76	54,361
846,94	38,966
847,12	54,808
847,30	45,216
847,48	44,991
847,66	44,239
847,84	45,406
848,02	33,824
848,20	48,964
848,38	43,393
848,56	41,293
848,74	43,898
848,92	43,471
849,10	42,077
849,28	46,142
849,46	38,078
849,64	45,891
849,82	49,201
850,00	44,013
850,18	38,827
850,36	42,715
850,54	39,457
850,72	37,072
850,90	40,435
851,08	41,890
851,26	41,748
851,44	37,964
851,62	49,451
851,80	35,843
851,98	44,193
852,16	41,106
852,34	40,423
852,52	39,497
852,70	47,025
852,87	33,916
853,05	39,255
853,23	39,233
853,41	39,718
853,59	34,632
853,77	45,494
853,95	49,558
854,13	41,193
854,31	37,601
854,49	37,834
854,67	46,414
854,85	41,509
855,03	43,165
855,21	42,063
855,39	46,684
855,57	38,235
855,75	44,622
855,93	33,287
856,11	38,132
856,28	36,485
856,46	33,816
856,64	36,364
856,82	34,932
857,00	38,579
857,18	35,629
857,36	41,418
857,54	38,977
857,72	38,994
857,90	37,083
858,08	30,990
858,26	33,769
858,44	33,692
858,61	34,689
858,79	36,830
858,97	33,781
859,15	34,314
859,33	32,632
859,51	34,104
859,69	34,773
859,87	31,439
860,05	29,889
860,23	27,744
860,40	25,246
860,58	27,303
860,76	26,196
860,94	27,137
861,12	30,403
861,30	33,820
861,48	28,438
861,66	27,244
861,84	27,922
862,01	30,330
862,19	32,012
862,37	26,869
862,55	27,328
862,73	26,343
862,91	32,921
863,09	29,671
863,27	30,237
863,44	30,614
863,62	33,742
863,80	30,146
863,98	27,716
864,16	30,323
864,34	29,441
864,52	33,454
864,69	31,827
864,87	28,673
865,05	30,566
865,23	27,172
865,41	24,901
865,59	30,955
865,76	29,831
865,94	29,098
866,12	29,913
866,30	29,639
866,48	31,532
866,66	35,130
866,83	32,819
867,01	35,216
867,19	28,689
867,37	35,431
867,55	36,054
867,73	32,697
867,90	34,797
868,08	37,980
868,26	31,830
868,44	35,870
868,62	37,727
868,79	34,338
868,97	35,368
869,15	37,112
869,33	34,420
869,51	34,513
869,69	35,294
869,86	36,767
870,04	39,643
870,22	36,799
870,40	40,755
870,57	40,476
870,75	36,530
870,93	37,414
871,11	40,752
871,29	33,981
871,46	33,231
871,64	38,171
871,82	38,084
872,00	40,813
872,18	38,815
872,35	37,923
872,53	38,445
872,71	32,595
872,89	37,426
873,06	36,594
873,24	38,063
873,42	40,825
873,60	38,407
873,77	36,383
873,95	39,944
874,13	35,560
874,31	35,548
874,49	35,477
874,66	40,743
874,84	37,706
875,02	36,036
875,20	34,903
875,37	40,838
875,55	36,021
875,73	35,843
875,91	36,973
876,08	38,215
876,26	39,543
876,44	37,650
876,61	38,084
876,79	34,187
876,97	34,595
877,15	36,456
877,32	36,488
877,50	34,961
877,68	34,350
877,86	33,036
878,03	36,244
878,21	35,274
878,39	37,249
878,56	35,562
878,74	36,013
878,92	34,062
879,10	39,925
879,27	38,069
879,45	38,255
879,63	33,131
879,80	34,380
879,98	33,836
880,16	38,620
880,34	37,938
880,51	39,232
880,69	38,095
880,87	37,317
881,04	36,718
881,22	35,583
881,40	38,635
881,57	35,890
881,75	37,653
881,93	36,082
882,10	38,224
882,28	36,576
882,46	39,163
882,63	38,870
882,81	35,825
882,99	35,162
883,16	39,664
883,34	38,121
883,52	37,730
883,69	37,817
883,87	37,839
884,05	38,497
884,22	38,468
884,40	38,944
884,58	34,326
884,75	35,102
884,93	38,283
885,11	40,736
885,28	38,787
885,46	37,251
885,64	36,976
885,81	33,879
885,99	36,382
886,17	35,446
886,34	34,926
886,52	36,470
886,70	35,128
886,87	35,429
887,05	35,015
887,22	33,245
887,40	35,592
887,58	33,590
887,75	33,698
887,93	32,346
888,11	32,539
888,28	34,506
888,46	32,281
888,63	29,420
888,81	32,798
888,99	32,251
889,16	32,018
889,34	30,725
889,51	33,943
889,69	33,098
889,87	33,509
890,04	33,333
890,22	33,107
890,39	32,605
890,57	32,260
890,75	34,529
890,92	33,528
891,10	32,549
891,27	33,246
891,45	33,764
891,63	33,667
891,80	34,865
891,98	33,333
892,15	33,486
892,33	33,547
892,51	33,660
892,68	33,087
892,86	35,489
893,03	31,008
893,21	35,041
893,38	33,099
893,56	36,240
893,74	35,407
893,91	33,599
894,09	33,728
894,26	34,060
894,44	37,553
894,61	33,819
894,79	35,522
894,96	35,496
895,14	35,296
895,32	34,060
895,49	35,303
895,67	33,284
895,84	36,005
896,02	35,681
896,19	34,361
896,37	33,456
896,54	35,062
896,72	34,341
896,89	35,263
897,07	34,044
897,25	34,316
897,42	34,316
897,60	34,154
897,77	33,119
897,95	32,249
898,12	34,951
898,30	33,024
898,47	32,545
898,65	34,104
898,82	32,939
899,00	31,813
899,17	34,566
899,35	32,609
899,52	33,627
899,70	33,727
899,87	30,610
900,05	31,972
900,22	30,656
900,40	31,854
900,57	30,802
900,75	32,853
900,92	30,174
901,10	31,338
901,27	31,244
901,45	30,021
901,62	31,237
901,80	30,531
901,97	30,357
902,15	29,045
902,32	30,100
902,50	30,418
902,67	29,477
902,85	29,215
903,02	28,568
903,20	29,621
903,37	30,624
903,54	28,561
903,72	28,437
903,89	28,500
904,07	28,706
904,24	29,716
904,42	29,058
904,59	29,642
904,77	29,428
904,94	27,649
905,12	30,099
905,29	30,279
905,47	30,971
905,64	29,111
905,81	29,644
905,99	29,299
906,16	30,842
906,34	29,927
906,51	31,774
906,69	28,612
906,86	30,533
907,03	30,224
907,21	30,425
907,38	29,878
907,56	28,946
907,73	30,186
907,91	31,432
908,08	29,279
908,25	29,761
908,43	31,604
908,60	32,155
908,78	32,972
908,95	30,166
909,13	32,301
909,30	31,098
909,47	31,355
909,65	31,655
909,82	32,355
910,00	30,873
910,17	30,488
910,34	31,173
910,52	31,841
910,69	31,492
910,87	33,793
911,04	30,893
911,21	32,373
911,39	32,532
911,56	32,130
911,73	32,732
911,91	33,420
912,08	32,361
912,26	33,383
912,43	33,460
912,60	33,206
912,78	32,921
912,95	32,425
913,13	32,354
913,30	33,306
913,47	32,481
913,65	33,197
913,82	32,942
913,99	33,044
914,17	33,159
914,34	33,279
914,51	33,617
914,69	33,212
914,86	33,568
915,03	34,080
915,21	33,980
915,38	33,327
915,56	34,186
915,73	33,568
915,90	32,588
916,08	33,480
916,25	34,451
916,42	34,181
916,60	33,745
916,77	33,596
916,94	33,718
917,12	34,918
917,29	34,494
917,46	36,007
917,64	33,333
917,81	35,485
917,98	34,505
918,16	35,133
918,33	35,518
918,50	35,129
918,67	34,412
918,85	33,234
919,02	34,817
919,19	35,160
919,37	34,965
919,54	35,375
919,71	34,378
919,89	33,748
920,06	34,018
920,23	35,971
920,41	35,396
920,58	33,895
920,75	35,379
920,92	34,761
921,10	33,655
921,27	34,787
921,44	34,553
921,62	35,043
921,79	36,344
921,96	36,994
922,13	35,147
922,31	35,685
922,48	34,777
922,65	35,744
922,82	35,824
923,00	36,205
923,17	35,897
923,34	35,922
923,52	35,437
923,69	35,541
923,86	35,477
924,03	34,918
924,21	35,771
924,38	35,155
924,55	35,848
924,72	35,758
924,90	34,851
925,07	36,885
925,24	36,297
925,41	37,116
925,59	35,506
925,76	36,190
925,93	36,983
926,10	36,219
926,28	36,784
926,45	35,842
926,62	34,390
926,79	37,319
926,96	35,841
927,14	36,416
927,31	36,295
927,48	34,411
927,65	35,849
927,83	36,175
928,00	34,516
928,17	35,168
928,34	35,406
928,51	35,700
928,69	35,492
928,86	35,612
929,03	35,608
929,20	35,265
929,37	34,255
929,55	35,372
929,72	34,814
929,89	34,594
930,06	33,852
930,23	33,877
930,41	34,844
930,58	34,737
930,75	33,917
930,92	34,811
931,09	35,255
931,27	34,948
931,44	34,158
931,61	34,851
931,78	33,799
931,95	34,001
932,12	33,192
932,30	32,912
932,47	33,894
932,64	31,974
932,81	34,277
932,98	33,101
933,16	32,814
933,33	33,139
933,50	34,012
933,67	32,946
933,84	34,432
934,01	32,658
934,18	32,118
934,36	32,547
934,53	32,910
934,70	33,194
934,87	33,289
935,04	33,807
935,21	32,085
935,38	33,730
935,56	33,319
935,73	32,701
935,90	31,966
936,07	33,418
936,24	33,258
936,41	32,724
936,58	32,445
936,76	33,487
936,93	33,309
937,10	35,106
937,27	34,554
937,44	35,692
937,61	34,625
937,78	33,923
937,95	35,269
938,13	35,297
938,30	35,987
938,47	35,604
938,64	35,879
938,81	35,548
938,98	38,042
939,15	37,767
939,32	38,045
939,49	38,763
939,66	38,131
939,84	37,672
940,01	39,920
940,18	38,667
940,35	39,758
940,52	39,734
940,69	40,372
940,86	41,397
941,03	42,153
941,20	39,315
941,37	42,501
941,54	41,611
941,71	41,558
941,89	43,070
942,06	41,810
942,23	42,522
942,40	44,139
942,57	44,206
942,74	42,919
942,91	44,143
943,08	43,853
943,25	44,639
943,42	45,128
943,59	43,784
943,76	45,186
943,93	46,213
944,10	46,428
944,27	45,680
944,44	47,402
944,61	47,175
944,79	45,781
944,96	45,956
945,13	46,221
945,30	46,964
945,47	47,147
945,64	46,595
945,81	47,995
945,98	49,053
946,15	47,888
946,32	46,401
946,49	48,380
946,66	48,305
946,83	48,059
947,00	48,630
947,17	48,863
947,34	48,879
947,51	49,203
947,68	50,291
947,85	50,071
948,02	50,256
948,19	51,960
948,36	50,247
948,53	49,979
948,70	49,061
948,87	50,731
949,04	50,394
949,21	51,366
949,38	50,409
949,55	49,241
949,72	50,486
949,89	50,507
950,06	50,891
950,23	51,678
950,40	47,226
950,57	49,036
950,74	49,200
950,91	49,222
951,08	50,411
951,25	50,992
951,42	50,040
951,59	48,827
951,76	48,649
951,93	49,105
952,10	48,956
952,27	49,756
952,44	51,837
952,61	48,131
952,77	46,326
952,94	48,238
953,11	50,386
953,28	47,143
953,45	51,751
953,62	46,928
953,79	48,533
953,96	48,302
954,13	48,775
954,30	47,006
954,47	49,559
954,64	46,797
954,81	45,379
954,98	47,940
955,15	46,612
955,32	47,354
955,49	44,949
955,65	46,375
955,82	46,699
955,99	46,413
956,16	45,667
956,33	44,535
956,50	46,343
956,67	44,845
956,84	45,382
957,01	43,710
957,18	41,556
957,35	43,533
957,52	38,657
957,68	41,522
957,85	40,044
958,02	40,343
958,19	37,037
958,36	40,630
958,53	37,598
958,70	36,015
958,87	40,412
959,04	41,787
959,21	38,783
959,37	39,677
959,54	38,519
959,71	38,179
959,88	39,021
960,05	33,608
960,22	35,796
960,39	38,690
960,56	31,295
960,72	40,858
960,89	39,448
961,06	35,066
961,23	32,751
961,40	34,580
961,57	33,715
961,74	35,173
961,90	36,827
962,07	32,704
962,24	39,727
962,41	35,973
962,58	31,104
962,75	29,704
962,92	30,000
963,08	33,975
963,25	33,294
963,42	29,289
963,59	31,846
963,76	32,262
963,93	29,321
964,10	30,670
964,26	29,907
964,43	38,661
964,60	27,811
964,77	39,051
964,94	36,615
965,10	33,660
965,27	29,054
965,44	32,333
965,61	33,977
965,78	30,931
965,95	33,105
966,11	34,447
966,28	31,648
966,45	27,048
966,62	30,342
966,79	38,415
966,95	17,672
967,12	31,579
967,29	36,916
967,46	29,348
967,63	34,815
967,79	33,967
967,96	18,898
968,13	47,962
968,30	34,973
968,47	32,718
968,63	30,473
968,80	32,414
968,97	51,143
969,14	29,499
969,31	41,026
969,47	44,164
969,64	46,865
969,81	57,193
969,98	41,813
970,14	25,926
970,31	42,294
970,48	33,808
970,65	51,408
970,81	29,932
970,98	37,079
971,15	49,770
971,32	34,322
971,48	36,765
971,65	24,370
971,82	47,959
971,99	41,294
972,15	26,316
972,32	32,510
972,49	38,627
972,66	49,115
972,82	16,337
972,99	47,660
973,16	64,948
973,33	44,762
973,49	47,222
973,66	54,622
973,83	56,463
974,00	63,934
974,16	52,201
974,33	70,732
974,50	38,889
974,67	51,579
974,83	49,718
975,00	66,667
975,17	55,782
975,33	65,942
975,50	64,848
975,67	52,679
975,84	43,262
976,00	30,000
976,17	88,235
976,34	56,028
976,50	73,043
976,67	83,621
976,84	98,718
977,00	47,368
977,17	58,268
977,34	43,011
977,50	80,851
977,67	62,281
977,84	14,545
978,01	105,747
978,17	146,154
978,34	36,458
978,51	-22,727
978,67	53,846
978,84	66,667
979,01	47,692
979,17	74,242
979,34	381,250
979,51	96,154
979,67	68,750
979,84	88,095
980,01	85,246
980,17	82,353
980,34	108,696
980,51	79,545
980,67	93,333
980,84	77,586
981,01	46,154
981,17	86,000
981,34	87,500
981,50	75,000
981,67	122,414
981,84	48,276
982,00	123,913
982,17	227,273
982,34	12,821
982,50	368,421
982,67	99,074
982,84	42,857
983,00	116,000
983,17	70,833
983,33	56,452
983,50	91,304
983,67	113,043
983,83	216,667
984,00	200,000
984,17	25,000
984,33	89,189
984,50	33,333
984,66	28,571
984,83	59,302
985,00	191,803
985,16	28,205
985,33	175,000
985,49	220,690
985,66	245,455
985,83	56,140
985,99	54,054
986,16	316,000
986,32	92,754
986,49	508,333
986,66	-16,279
986,82	61,404
986,99	195,238
987,15	141,379
987,32	105,556
987,49	58,333
987,65	-30,000
987,82	17,647
987,98	-111,765
988,15	250,000
988,31	74,000
988,48	-29,167
988,65	281,481
988,81	156,522
988,98	216,667
989,14	51,020
989,31	170,000
989,47	-14,634
989,64	58,571
989,80	13,333
989,97	116,176
990,14	0,000
990,30	137,500
990,47	95,122
990,63	282,609
990,80	181,818
990,96	233,333
991,13	175,000
991,29	70,588
991,46	145,098
991,62	111,765
991,79	105,263
991,95	285,000
992,12	165,116
992,29	304,000
992,45	-69,231
992,62	-250,000
992,78	-103,704
992,95	77,778
993,11	253,333
993,28	24,691
993,44	247,826
993,61	1233,333
993,77	-40,000
993,94	144,186
994,10	271,429
994,27	56,000
994,43	211,765
994,60	45,455
994,76	347,368
994,93	127,273
995,09	-51,351
995,26	75,309
995,42	76,271
995,59	228,571
995,75	231,250
995,92	245,455
996,08	87,500
996,25	166,667
996,41	112,500
996,58	232,432
996,74	400,000
996,91	366,667
997,07	130,769
997,23	121,277
997,40	33,333
997,56	326,667
997,73	0,000
997,89	185,185
998,06	7,843
998,22	100,000
998,39	234,783
998,55	-120,833
998,72	275,000
998,88	1566,667
999,05	-300,000
999,21	213,043
999,37	-2100,000
999,54	-1000,000
999,70	200,000
999,87	-118,750
1000,03	93,750
1000,20	-200,000
1000,36	-900,000
1000,52	83,333
1000,69	143,182
1000,85	112,069
1001,02	96,923
1001,18	102,273
1001,35	-51,111
1001,51	-64,286
1001,67	6,667
1001,84	816,667
1002,00	120,000
1002,17	209,091
1002,33	-82,353
1002,50	-333,333
1002,66	1400,000
1002,82	145,714
1002,99	-146,154
1003,15	186,957
1003,32	64,516
1003,48	-500,000
1003,64	100,000
1003,81	-64,286
1003,97	181,818
1004,14	2033,333
1004,30	-357,143
1004,46	850,000
1004,63	373,684
1004,79	-266,667
1004,95	-17,647
1005,12	-100,000
1005,28	296,552
1005,45	98,077
1005,61	-833,333
1005,77	126,316
1005,94	141,935
1006,10	-3100,000
1006,26	94,643
1006,43	311,111
1006,59	-37,037
1006,76	196,000
1006,92	660,000
1007,08	420,000
1007,25	8,333
1007,41	-150,000
1007,57	-81,250
1007,74	4,348
1007,90	-600,000
1008,06	145,714
1008,23	168,519
1008,39	500,000
1008,55	-78,571
1008,72	493,750
1008,88	120,000
1009,04	300,000
1009,21	-76,471
1009,37	-37,500
1009,53	-247,368
1009,70	38,462
1009,86	52,273
1010,02	-69,231
1010,19	0,000
1010,35	231,250
1010,51	855,556
1010,68	675,000
1010,84	-1233,333
1011,00	24,444
1011,17	-1040,000
1011,33	94,118
1011,49	-3,125
1011,66	182,609
1011,82	-43,396
1011,98	-13,636
1012,14	56,061
1012,31	-40,000
1012,47	466,667
1012,63	144,444
1012,80	164,000
1012,96	-400,000
1013,12	113,953
1013,29	168,421
1013,45	80,000
1013,61	155,556
1013,77	77,778
1013,94	62,500
1014,10	-6,061
1014,26	2950,000
1014,43	-75,758
1014,59	-587,500
1014,75	-150,000
1014,91	1033,333
1015,08	286,667
1015,24	-700,000
1015,40	-405,882
1015,56	344,444
1015,73	184,444
1015,89	185,714
1016,05	940,000
1016,21	-11,111
1016,38	1000,000
1016,54	-392,308
1016,70	59,259
1016,86	148,485
1017,03	117,949
1017,19	100,000
1017,35	-176,923
1017,51	211,429
1017,68	345,455
1017,84	3400,000
1018,00	600,000
1018,16	141,667
1018,33	-471,429
1018,49	97,561
1018,65	20,588
1018,81	130,000
1018,97	-300,000
1019,14	186,667
1019,30	237,500
1019,46	355,556
1019,62	380,000
1019,79	125,000
1019,95	56,250
1020,11	-571,429
1020,27	500,000
1020,43	-314,286
1020,60	-157,895
1020,76	-222,222
1020,92	578,571
1021,08	-1400,000
1021,24	290,000
1021,41	-82,353
1021,57	154,545
1021,73	-475,000
1021,89	-42,857
1022,05	1300,000
1022,21	184,615
1022,38	20,000
1022,54	1900,000
1022,70	-18,182
1022,86	4100,000
1023,02	-305,882
1023,19	-422,222
1023,35	177,419
1023,51	71,429
1023,67	195,833
1023,83	1333,333
1023,99	22,222
1024,16	107,143
1024,32	56,000
1024,48	263,636
1024,64	411,111
1024,80	-125,000
1024,96	127,586
1025,12	185,714
1025,29	64,286
1025,45	116,667
1025,61	-1466,667
1025,77	9,677
1025,93	-40,000
1026,09	112,195
1026,26	252,632
1026,42	-31,250
1026,58	-73,913
1026,74	195,833
1026,90	44,444
1027,06	-10,256
1027,22	-52,174
1027,38	93,478
1027,55	1533,333
1027,71	213,333
1027,87	-112,500
1028,03	-25,000
1028,19	-294,118
1028,35	-500,000
1028,51	120,000
1028,67	91,176
1028,83	37,778
1029,00	337,500
1029,16	37,838
1029,32	135,714
1029,48	-257,143
1029,64	-92,308
1029,80	40,909
1029,96	416,667
1030,12	389,474
1030,28	100,000
1030,44	220,000
1030,61	36,364
1030,77	-850,000
1030,93	-368,750
1031,09	700,000
1031,25	0,000
1031,41	400,000
1031,57	-1200,000
1031,73	-475,000
1031,89	-186,364
1032,05	-118,605
1032,21	-72,727
1032,37	78,571
1032,53	-75,862
1032,69	165,385
1032,86	-333,333
1033,02	-166,667
1033,18	166,667
1033,34	-1050,000
1033,50	312,500
1033,66	-140,000
1033,82	55,556
1033,98	3000,000
1034,14	-250,000
1034,30	13,333
1034,46	41,176
1034,62	166,667
1034,78	-204,348
1034,94	77,419
1035,10	-400,000
1035,26	577,778
1035,42	80,000
1035,58	283,333
1035,74	116,216
1035,90	468,750
1036,06	-21,569
1036,22	121,212
1036,38	-162,500
1036,54	-118,750
1036,70	193,548
1036,86	40,000
1037,02	42,857
1037,18	105,882
1037,34	0,000
1037,50	-300,000
1037,66	-1800,000
1037,82	219,048
1037,98	362,500
1038,14	-1000,000
1038,30	120,690
1038,46	-371,429
1038,62	211,111
1038,78	-42,857
1038,94	430,000
1039,10	28,000
1039,26	-20,833
1039,42	200,000
1039,58	-750,000
1039,74	350,000
1039,90	-350,000
1040,06	-26,154
>>>>>End Processed Spectral Data<<<<<
