SpectraSuite Data File
++++++++++++++++++++++++++++++++++++
Date: Thu Feb 02 18:49:09 EET 2017
User: optolab
Dark Spectrum Present: Yes
Reference Spectrum Present: Yes
Number of Sampled Component Spectra: 1
Spectrometers: USB4C02475
Integration Time (usec): 151411 (USB4C02475)
Spectra Averaged: 1 (USB4C02475)
Boxcar Smoothing: 0 (USB4C02475)
Correct for Electrical Dark: No (USB4C02475)
Strobe/Lamp Enabled: No (USB4C02475)
Correct for Detector Non-linearity: No (USB4C02475)
Correct for Stray Light: No (USB4C02475)
Number of Pixels in Processed Spectrum: 3648
>>>>>Begin Processed Spectral Data<<<<<
344,91	148,148
345,13	148,148
345,35	148,148
345,57	-20,000
345,79	130,769
346,00	44,000
346,22	54,054
346,44	-192,308
346,66	2433,333
346,87	-190,000
347,09	-50,000
347,31	-2000,000
347,53	12,821
347,74	200,000
347,96	400,000
348,18	17,073
348,40	-220,000
348,61	43,137
348,83	11,111
349,05	-43,636
349,27	70,588
349,48	9,804
349,70	27,273
349,92	-4,878
350,14	2900,000
350,35	26,923
350,57	70,588
350,79	36,170
351,01	174,194
351,22	-200,000
351,44	-44,444
351,66	0,000
351,87	50,000
352,09	107,692
352,31	104,348
352,53	132,258
352,74	-28,125
352,96	45,918
353,18	54,545
353,40	150,000
353,61	66,667
353,83	108,000
354,05	-20,690
354,26	-18,182
354,48	304,545
354,70	70,000
354,92	38,095
355,13	36,735
355,35	-700,000
355,57	100,000
355,78	95,000
356,00	69,767
356,22	71,642
356,44	0,000
356,65	-48,718
356,87	58,025
357,09	-49,275
357,30	102,703
357,52	-94,286
357,74	49,231
357,95	27,778
358,17	-47,222
358,39	125,000
358,60	46,316
358,82	31,944
359,04	61,111
359,26	46,667
359,47	37,931
359,69	2025,000
359,91	-9,375
360,12	-17,460
360,34	231,579
360,56	4,211
360,77	48,148
360,99	75,000
361,21	74,359
361,42	-7,500
361,64	-9,091
361,86	13,187
362,07	51,485
362,29	-228,571
362,51	96,296
362,72	35,000
362,94	17,500
363,16	113,043
363,37	112,500
363,59	36,264
363,81	47,458
364,02	-21,212
364,24	40,000
364,46	94,000
364,67	22,222
364,89	39,189
365,11	-900,000
365,32	101,754
365,54	13,043
365,76	10,000
365,97	48,571
366,19	5,263
366,41	0,000
366,62	38,571
366,84	26,667
367,05	37,500
367,27	-36,364
367,49	53,030
367,70	19,565
367,92	31,646
368,14	30,108
368,35	44,444
368,57	13,333
368,79	56,757
369,00	55,714
369,22	41,667
369,43	22,449
369,65	48,810
369,87	61,728
370,08	73,913
370,30	4,706
370,51	23,664
370,73	-11,111
370,95	45,361
371,16	36,364
371,38	-21,918
371,60	15,116
371,81	54,737
372,03	12,727
372,24	89,474
372,46	41,667
372,68	59,494
372,89	13,158
373,11	-46,296
373,32	31,746
373,54	-10,938
373,76	24,370
373,97	28,455
374,19	38,889
374,40	96,522
374,62	72,727
374,84	20,388
375,05	48,421
375,27	-9,524
375,48	63,636
375,70	32,432
375,92	-7,609
376,13	25,714
376,35	39,024
376,56	23,077
376,78	34,615
376,99	-22,078
377,21	18,254
377,43	20,833
377,64	15,254
377,86	3,226
378,07	72,105
378,29	34,545
378,51	4,687
378,72	-7,407
378,94	27,273
379,15	2,817
379,37	25,547
379,58	29,060
379,80	17,680
380,01	13,000
380,23	32,836
380,45	29,000
380,66	15,972
380,88	5,294
381,09	22,727
381,31	2,941
381,52	46,622
381,74	25,157
381,95	-43,421
382,17	0,562
382,39	30,120
382,60	11,511
382,82	21,277
383,03	15,000
383,25	15,603
383,46	23,478
383,68	6,329
383,89	45,604
384,11	5,357
384,32	47,143
384,54	-1,905
384,76	16,763
384,97	15,341
385,19	30,400
385,40	1,786
385,62	37,234
385,83	13,548
386,05	38,462
386,26	16,931
386,48	11,039
386,69	-17,600
386,91	-4,865
387,12	13,298
387,34	-6,630
387,55	-15,686
387,77	28,342
387,98	10,648
388,20	33,333
388,41	16,064
388,63	7,619
388,84	12,081
389,06	7,650
389,27	3,687
389,49	19,417
389,70	10,106
389,92	20,197
390,13	-12,838
390,35	15,625
390,56	17,213
390,78	18,828
390,99	5,699
391,21	30,882
391,42	16,194
391,64	0,000
391,85	18,974
392,07	3,297
392,28	45,635
392,50	12,308
392,71	21,106
392,93	-9,959
393,14	-20,219
393,36	13,964
393,57	36,910
393,79	37,900
394,00	-5,882
394,22	3,015
394,43	7,489
394,65	41,079
394,86	14,068
395,08	5,202
395,29	2,222
395,50	22,807
395,72	20,426
395,93	-1,653
396,15	25,455
396,36	18,317
396,58	11,211
396,79	10,959
397,01	-5,907
397,22	6,742
397,44	7,173
397,65	13,074
397,87	15,830
398,08	21,683
398,29	12,795
398,51	22,124
398,72	13,235
398,94	3,448
399,15	28,906
399,37	16,096
399,58	13,725
399,80	33,908
400,01	16,413
400,22	12,375
400,44	-6,276
400,65	7,333
400,87	16,667
401,08	23,906
401,30	6,143
401,51	21,910
401,72	13,971
401,94	18,881
402,15	23,529
402,37	14,286
402,58	17,391
402,80	19,619
403,01	15,526
403,22	20,455
403,44	40,136
403,65	6,643
403,87	4,923
404,08	21,053
404,30	17,135
404,51	30,704
404,72	10,398
404,94	15,915
405,15	14,626
405,37	7,479
405,58	22,304
405,79	31,117
406,01	10,585
406,22	6,853
406,44	10,236
406,65	7,022
406,86	16,047
407,08	13,370
407,29	6,983
407,51	3,684
407,72	16,711
407,93	6,332
408,15	12,888
408,36	14,878
408,58	17,742
408,79	11,169
409,00	10,493
409,22	13,958
409,43	13,750
409,64	11,086
409,86	18,561
410,07	20,742
410,29	10,889
410,50	13,061
410,71	13,296
410,93	12,273
411,14	18,872
411,35	6,557
411,57	7,078
411,78	17,960
412,00	17,711
412,21	7,299
412,42	17,907
412,64	4,925
412,85	1,798
413,06	15,348
413,28	10,647
413,49	6,794
413,70	12,835
413,92	3,273
414,13	11,813
414,34	12,929
414,56	12,885
414,77	13,733
414,98	11,028
415,20	7,198
415,41	9,584
415,63	6,963
415,84	13,899
416,05	19,406
416,27	18,066
416,48	13,444
416,69	17,976
416,91	4,554
417,12	14,476
417,33	9,551
417,55	10,376
417,76	9,315
417,97	17,158
418,19	16,854
418,40	10,590
418,61	13,447
418,83	11,049
419,04	13,005
419,25	11,111
419,46	10,761
419,68	9,677
419,89	6,714
420,10	14,241
420,32	12,365
420,53	3,909
420,74	15,604
420,96	13,393
421,17	11,886
421,38	11,690
421,60	13,009
421,81	8,788
422,02	11,457
422,23	10,981
422,45	4,085
422,66	4,369
422,87	12,354
423,09	13,009
423,30	7,321
423,51	6,366
423,73	11,925
423,94	11,157
424,15	11,096
424,36	10,629
424,58	10,549
424,79	17,063
425,00	8,208
425,22	13,924
425,43	10,188
425,64	7,826
425,85	14,737
426,07	5,858
426,28	9,674
426,49	8,225
426,71	13,690
426,92	10,475
427,13	7,858
427,34	10,262
427,56	10,624
427,77	11,771
427,98	6,874
428,19	12,881
428,41	14,253
428,62	10,046
428,83	13,672
429,04	10,532
429,26	16,093
429,47	8,855
429,68	10,151
429,89	4,016
430,11	13,975
430,32	7,294
430,53	9,872
430,74	4,913
430,96	10,482
431,17	9,340
431,38	8,905
431,59	5,947
431,81	8,363
432,02	10,688
432,23	10,868
432,44	5,058
432,66	6,126
432,87	6,098
433,08	13,428
433,29	7,470
433,51	9,000
433,72	6,973
433,93	4,722
434,14	9,741
434,35	8,808
434,57	9,332
434,78	4,085
434,99	10,549
435,20	10,064
435,42	8,166
435,63	7,513
435,84	10,700
436,05	7,497
436,26	7,256
436,48	7,928
436,69	7,940
436,90	7,896
437,11	9,631
437,32	6,549
437,54	7,679
437,75	7,077
437,96	6,366
438,17	10,718
438,38	7,570
438,60	4,780
438,81	8,776
439,02	7,481
439,23	7,536
439,44	6,339
439,66	5,134
439,87	6,085
440,08	4,313
440,29	7,529
440,50	5,243
440,72	5,662
440,93	5,130
441,14	6,019
441,35	7,583
441,56	4,469
441,77	5,732
441,99	5,806
442,20	5,828
442,41	7,290
442,62	6,306
442,83	6,760
443,04	4,705
443,26	5,288
443,47	6,410
443,68	3,583
443,89	7,002
444,10	4,552
444,31	4,963
444,53	4,451
444,74	4,007
444,95	4,501
445,16	2,819
445,37	4,693
445,58	4,146
445,80	4,690
446,01	4,830
446,22	3,857
446,43	3,209
446,64	4,346
446,85	3,594
447,06	3,982
447,28	2,910
447,49	3,504
447,70	3,622
447,91	4,796
448,12	3,977
448,33	4,160
448,54	2,996
448,76	3,272
448,97	3,841
449,18	3,923
449,39	2,624
449,60	2,791
449,81	2,981
450,02	3,446
450,23	2,867
450,45	1,690
450,66	3,172
450,87	3,156
451,08	2,605
451,29	2,754
451,50	2,394
451,71	2,079
451,92	2,708
452,13	2,367
452,35	3,210
452,56	2,420
452,77	2,795
452,98	2,941
453,19	3,352
453,40	2,730
453,61	2,529
453,82	2,371
454,03	2,360
454,25	1,955
454,46	1,906
454,67	2,041
454,88	2,438
455,09	2,116
455,30	2,236
455,51	1,824
455,72	1,666
455,93	1,774
456,14	2,211
456,35	1,508
456,56	1,885
456,78	2,202
456,99	1,973
457,20	1,823
457,41	2,268
457,62	1,899
457,83	1,651
458,04	1,461
458,25	2,114
458,46	1,290
458,67	1,755
458,88	1,453
459,09	1,411
459,30	1,707
459,51	1,555
459,73	1,546
459,94	1,510
460,15	1,733
460,36	1,662
460,57	1,590
460,78	1,398
460,99	1,505
461,20	1,262
461,41	1,287
461,62	1,062
461,83	1,487
462,04	1,455
462,25	1,370
462,46	1,226
462,67	1,333
462,88	1,621
463,09	1,351
463,30	1,375
463,51	1,527
463,72	1,325
463,93	1,359
464,15	1,266
464,36	1,439
464,57	1,186
464,78	1,411
464,99	1,485
465,20	1,341
465,41	1,415
465,62	1,409
465,83	1,336
466,04	1,065
466,25	1,527
466,46	1,341
466,67	1,330
466,88	1,332
467,09	1,210
467,30	1,239
467,51	1,118
467,72	1,398
467,93	1,201
468,14	1,373
468,35	1,267
468,56	1,208
468,77	1,316
468,98	1,425
469,19	1,261
469,40	1,200
469,61	1,507
469,82	1,284
470,03	1,312
470,24	1,473
470,45	1,647
470,66	1,359
470,87	1,460
471,08	1,465
471,29	1,587
471,50	1,426
471,71	1,621
471,92	1,589
472,13	1,526
472,34	1,895
472,55	1,392
472,76	1,526
472,97	1,775
473,18	1,885
473,39	1,571
473,60	1,691
473,81	1,880
474,01	1,794
474,22	1,354
474,43	1,840
474,64	1,977
474,85	1,954
475,06	1,644
475,27	1,699
475,48	2,087
475,69	1,828
475,90	1,843
476,11	2,158
476,32	2,126
476,53	2,158
476,74	1,972
476,95	2,064
477,16	1,975
477,37	2,148
477,58	2,091
477,79	2,164
478,00	2,095
478,21	2,365
478,41	2,433
478,62	1,948
478,83	2,241
479,04	2,279
479,25	2,233
479,46	2,331
479,67	2,576
479,88	2,409
480,09	2,383
480,30	2,711
480,51	2,506
480,72	2,797
480,93	2,492
481,14	2,453
481,34	2,453
481,55	2,701
481,76	2,351
481,97	2,773
482,18	2,708
482,39	2,585
482,60	2,667
482,81	2,427
483,02	2,737
483,23	2,795
483,44	2,881
483,65	2,708
483,85	2,651
484,06	3,050
484,27	2,661
484,48	2,640
484,69	2,862
484,90	2,872
485,11	2,684
485,32	2,792
485,53	3,087
485,73	2,925
485,94	3,017
486,15	2,874
486,36	2,980
486,57	2,871
486,78	2,972
486,99	2,831
487,20	3,061
487,41	2,989
487,61	3,069
487,82	2,907
488,03	2,861
488,24	2,772
488,45	2,964
488,66	2,982
488,87	3,138
489,08	2,717
489,28	3,050
489,49	3,030
489,70	3,012
489,91	3,116
490,12	3,018
490,33	3,078
490,54	3,088
490,74	3,148
490,95	3,303
491,16	3,226
491,37	3,135
491,58	3,252
491,79	3,197
492,00	3,068
492,20	3,228
492,41	3,140
492,62	3,257
492,83	2,986
493,04	3,381
493,25	3,361
493,45	3,414
493,66	3,432
493,87	3,295
494,08	3,378
494,29	3,144
494,50	3,203
494,70	3,308
494,91	3,540
495,12	3,124
495,33	3,382
495,54	3,389
495,75	3,571
495,95	3,428
496,16	3,322
496,37	3,379
496,58	3,244
496,79	3,376
496,99	3,463
497,20	3,433
497,41	3,532
497,62	3,430
497,83	3,639
498,04	3,564
498,24	3,652
498,45	3,468
498,66	3,831
498,87	3,578
499,08	3,522
499,28	3,373
499,49	3,542
499,70	3,461
499,91	3,547
500,12	3,405
500,32	3,545
500,53	3,601
500,74	3,768
500,95	3,670
501,15	3,695
501,36	3,765
501,57	3,405
501,78	3,641
501,99	3,709
502,19	3,624
502,40	3,599
502,61	3,982
502,82	3,894
503,02	3,811
503,23	3,876
503,44	3,962
503,65	3,893
503,86	4,000
504,06	3,574
504,27	3,798
504,48	4,013
504,69	3,844
504,89	3,605
505,10	4,161
505,31	3,989
505,52	3,960
505,72	4,166
505,93	4,091
506,14	4,118
506,35	4,225
506,55	3,902
506,76	3,829
506,97	3,897
507,18	3,907
507,38	4,117
507,59	4,376
507,80	4,325
508,01	4,209
508,21	4,250
508,42	4,137
508,63	4,303
508,84	4,335
509,04	4,350
509,25	4,443
509,46	3,993
509,67	4,130
509,87	4,352
510,08	4,331
510,29	4,258
510,49	4,248
510,70	4,560
510,91	4,562
511,12	4,030
511,32	4,619
511,53	4,356
511,74	4,124
511,94	4,454
512,15	4,163
512,36	4,391
512,57	4,478
512,77	4,449
512,98	4,281
513,19	4,387
513,39	4,302
513,60	4,361
513,81	4,439
514,01	4,550
514,22	4,571
514,43	4,555
514,64	4,647
514,84	4,755
515,05	4,546
515,26	4,359
515,46	4,694
515,67	4,653
515,88	4,938
516,08	4,494
516,29	4,671
516,50	4,725
516,70	4,985
516,91	4,924
517,12	4,701
517,32	4,889
517,53	4,532
517,74	5,055
517,95	4,910
518,15	5,117
518,36	4,806
518,57	4,802
518,77	4,915
518,98	5,145
519,19	5,096
519,39	5,089
519,60	5,057
519,80	4,880
520,01	5,095
520,22	4,986
520,42	5,416
520,63	5,047
520,84	5,148
521,04	5,347
521,25	5,366
521,46	5,224
521,66	4,885
521,87	5,266
522,08	5,411
522,28	5,348
522,49	5,371
522,70	5,164
522,90	5,354
523,11	5,363
523,31	5,748
523,52	5,583
523,73	5,387
523,93	5,924
524,14	5,210
524,35	5,571
524,55	5,970
524,76	5,900
524,97	5,628
525,17	5,675
525,38	5,578
525,58	5,939
525,79	5,831
526,00	5,984
526,20	6,248
526,41	5,862
526,61	5,744
526,82	6,159
527,03	6,398
527,23	6,221
527,44	5,854
527,64	6,558
527,85	6,323
528,06	6,201
528,26	6,373
528,47	6,320
528,68	6,037
528,88	6,076
529,09	6,107
529,29	6,185
529,50	6,360
529,70	6,178
529,91	6,150
530,12	6,337
530,32	6,373
530,53	6,551
530,73	6,663
530,94	6,205
531,15	6,242
531,35	6,461
531,56	6,527
531,76	6,690
531,97	6,755
532,17	6,793
532,38	7,114
532,59	6,768
532,79	6,657
533,00	6,513
533,20	6,789
533,41	6,843
533,61	6,688
533,82	6,745
534,03	7,219
534,23	6,986
534,44	7,479
534,64	7,277
534,85	7,266
535,05	7,267
535,26	6,966
535,46	7,511
535,67	7,265
535,88	7,712
536,08	7,373
536,29	6,971
536,49	7,524
536,70	7,500
536,90	7,390
537,11	7,284
537,31	7,101
537,52	7,605
537,72	7,421
537,93	7,174
538,13	7,538
538,34	7,833
538,55	7,814
538,75	7,682
538,96	7,669
539,16	7,303
539,37	7,344
539,57	7,326
539,78	7,388
539,98	7,520
540,19	7,543
540,39	7,830
540,60	8,099
540,80	7,456
541,01	7,950
541,21	7,873
541,42	7,802
541,62	7,753
541,83	7,875
542,03	7,678
542,24	7,917
542,44	8,184
542,65	8,376
542,85	7,809
543,06	7,956
543,26	7,955
543,47	7,968
543,67	8,244
543,88	8,378
544,08	8,258
544,29	8,407
544,49	8,435
544,70	8,224
544,90	8,315
545,11	8,441
545,31	8,349
545,52	8,407
545,72	8,735
545,93	8,330
546,13	8,691
546,34	8,110
546,54	8,934
546,75	8,278
546,95	8,405
547,15	8,399
547,36	8,238
547,56	8,734
547,77	8,289
547,97	8,942
548,18	8,522
548,38	8,727
548,59	8,580
548,79	8,576
549,00	8,881
549,20	8,831
549,41	8,956
549,61	8,938
549,81	8,812
550,02	8,409
550,22	9,008
550,43	9,004
550,63	9,205
550,84	9,096
551,04	8,841
551,25	8,810
551,45	9,128
551,65	9,176
551,86	8,499
552,06	9,410
552,27	9,105
552,47	9,441
552,68	9,234
552,88	8,822
553,08	9,157
553,29	8,778
553,49	8,640
553,70	9,002
553,90	8,840
554,11	8,963
554,31	9,200
554,51	9,228
554,72	9,032
554,92	9,159
555,13	9,551
555,33	8,912
555,53	9,770
555,74	9,128
555,94	9,105
556,15	9,603
556,35	9,263
556,56	9,296
556,76	9,208
556,96	9,021
557,17	8,637
557,37	9,086
557,58	9,713
557,78	9,220
557,98	8,872
558,19	9,043
558,39	9,354
558,59	9,359
558,80	9,247
559,00	9,349
559,21	9,753
559,41	9,313
559,61	9,001
559,82	9,548
560,02	9,686
560,23	9,251
560,43	9,426
560,63	9,259
560,84	9,502
561,04	9,356
561,24	9,229
561,45	9,405
561,65	8,987
561,85	9,483
562,06	9,564
562,26	9,450
562,47	9,193
562,67	9,409
562,87	9,674
563,08	9,529
563,28	9,888
563,48	9,472
563,69	9,276
563,89	9,607
564,09	9,117
564,30	9,092
564,50	9,271
564,70	9,918
564,91	9,345
565,11	9,658
565,31	9,370
565,52	9,717
565,72	9,712
565,92	9,645
566,13	9,179
566,33	9,400
566,53	9,989
566,74	9,692
566,94	9,105
567,14	9,562
567,35	9,215
567,55	9,369
567,75	9,430
567,96	9,383
568,16	9,677
568,36	9,558
568,57	9,949
568,77	9,247
568,97	9,317
569,18	9,603
569,38	9,730
569,58	9,702
569,79	9,734
569,99	9,978
570,19	9,652
570,39	9,767
570,60	9,578
570,80	9,756
571,00	9,478
571,21	9,450
571,41	9,698
571,61	9,728
571,82	9,821
572,02	10,273
572,22	9,685
572,42	9,709
572,63	9,887
572,83	10,061
573,03	9,496
573,24	8,912
573,44	9,287
573,64	9,549
573,84	9,613
574,05	9,444
574,25	9,886
574,45	9,512
574,66	9,355
574,86	9,893
575,06	9,449
575,26	9,767
575,47	9,874
575,67	9,756
575,87	9,992
576,07	9,655
576,28	9,480
576,48	9,541
576,68	9,415
576,88	9,511
577,09	9,196
577,29	9,327
577,49	9,370
577,69	9,689
577,90	9,489
578,10	9,464
578,30	9,629
578,50	9,560
578,71	9,464
578,91	9,401
579,11	9,333
579,31	9,494
579,52	9,221
579,72	9,329
579,92	9,842
580,12	9,505
580,33	9,254
580,53	9,566
580,73	9,539
580,93	9,181
581,13	9,396
581,34	9,289
581,54	9,043
581,74	9,157
581,94	9,684
582,15	9,186
582,35	9,282
582,55	9,467
582,75	9,166
582,95	8,872
583,16	9,287
583,36	9,317
583,56	9,073
583,76	9,223
583,96	9,340
584,17	9,620
584,37	8,956
584,57	9,258
584,77	9,300
584,97	9,128
585,18	9,145
585,38	8,945
585,58	9,268
585,78	9,043
585,98	9,223
586,19	9,286
586,39	9,112
586,59	8,994
586,79	8,752
586,99	8,867
587,20	8,744
587,40	9,028
587,60	8,966
587,80	8,646
588,00	8,409
588,20	8,853
588,41	8,788
588,61	8,587
588,81	8,600
589,01	8,807
589,21	8,699
589,41	8,791
589,62	8,824
589,82	9,256
590,02	8,827
590,22	8,505
590,42	8,692
590,62	8,565
590,83	8,742
591,03	8,414
591,23	8,449
591,43	8,671
591,63	8,397
591,83	8,328
592,03	8,531
592,24	8,556
592,44	8,395
592,64	8,465
592,84	8,203
593,04	8,543
593,24	8,558
593,44	8,327
593,65	8,098
593,85	8,172
594,05	8,153
594,25	8,174
594,45	8,189
594,65	8,218
594,85	8,213
595,06	8,036
595,26	8,201
595,46	8,002
595,66	8,515
595,86	8,336
596,06	8,495
596,26	8,169
596,46	8,267
596,66	7,964
596,87	8,111
597,07	8,189
597,27	8,249
597,47	8,157
597,67	8,066
597,87	8,104
598,07	8,421
598,27	8,263
598,47	8,079
598,67	8,590
598,88	8,353
599,08	8,278
599,28	8,496
599,48	8,574
599,68	8,629
599,88	8,799
600,08	8,783
600,28	8,712
600,48	8,657
600,68	9,016
600,88	8,875
601,09	8,667
601,29	8,766
601,49	9,051
601,69	9,136
601,89	9,080
602,09	9,477
602,29	9,390
602,49	9,127
602,69	9,615
602,89	9,483
603,09	9,372
603,29	9,226
603,49	9,455
603,69	9,292
603,90	9,101
604,10	8,758
604,30	9,397
604,50	9,165
604,70	9,272
604,90	9,556
605,10	9,220
605,30	9,607
605,50	9,412
605,70	9,761
605,90	9,855
606,10	9,868
606,30	9,806
606,50	9,416
606,70	9,697
606,90	9,627
607,10	9,892
607,30	9,666
607,50	9,568
607,70	9,875
607,90	9,861
608,10	9,574
608,30	9,432
608,50	9,523
608,70	9,597
608,90	9,549
609,11	9,580
609,31	10,100
609,51	9,565
609,71	9,584
609,91	9,984
610,11	9,663
610,31	9,743
610,51	9,861
610,71	9,540
610,91	9,577
611,11	9,583
611,31	9,778
611,51	9,827
611,71	9,832
611,91	9,785
612,11	9,753
612,31	9,793
612,51	10,358
612,71	9,909
612,91	10,303
613,11	9,810
613,31	9,980
613,51	9,753
613,71	9,705
613,91	9,778
614,11	9,750
614,31	9,774
614,50	10,353
614,70	9,825
614,90	9,765
615,10	9,385
615,30	9,557
615,50	9,948
615,70	9,837
615,90	10,057
616,10	10,017
616,30	9,707
616,50	9,789
616,70	9,692
616,90	9,999
617,10	9,866
617,30	10,047
617,50	9,985
617,70	10,081
617,90	9,689
618,10	9,671
618,30	9,773
618,50	9,720
618,70	9,871
618,90	10,117
619,10	9,631
619,30	9,704
619,49	10,059
619,69	10,111
619,89	9,893
620,09	10,060
620,29	10,048
620,49	10,125
620,69	9,709
620,89	10,299
621,09	10,032
621,29	9,995
621,49	10,190
621,69	10,162
621,89	10,262
622,09	10,349
622,29	10,099
622,48	9,747
622,68	9,904
622,88	10,079
623,08	9,785
623,28	10,136
623,48	10,244
623,68	10,423
623,88	10,138
624,08	10,254
624,28	10,223
624,48	10,266
624,67	10,123
624,87	10,275
625,07	10,172
625,27	9,972
625,47	10,213
625,67	10,524
625,87	10,462
626,07	10,241
626,27	10,291
626,47	10,288
626,66	10,038
626,86	10,577
627,06	10,288
627,26	10,495
627,46	10,582
627,66	10,292
627,86	10,687
628,06	10,103
628,25	10,475
628,45	10,036
628,65	10,185
628,85	10,117
629,05	10,100
629,25	10,260
629,45	9,971
629,65	10,707
629,84	10,390
630,04	10,800
630,24	10,732
630,44	10,879
630,64	11,036
630,84	11,088
631,04	10,724
631,23	10,749
631,43	10,968
631,63	11,065
631,83	11,011
632,03	10,869
632,23	11,130
632,42	11,076
632,62	11,004
632,82	11,480
633,02	11,504
633,22	11,541
633,42	11,787
633,62	11,645
633,81	11,535
634,01	11,613
634,21	11,688
634,41	11,738
634,61	11,517
634,80	11,686
635,00	11,576
635,20	11,520
635,40	11,738
635,60	11,859
635,80	11,744
635,99	11,843
636,19	11,632
636,39	11,962
636,59	12,136
636,79	12,002
636,98	11,970
637,18	12,050
637,38	12,400
637,58	12,564
637,78	12,554
637,97	12,518
638,17	12,841
638,37	13,227
638,57	13,214
638,77	13,468
638,96	13,786
639,16	13,572
639,36	13,570
639,56	13,696
639,76	13,888
639,95	14,234
640,15	14,180
640,35	14,743
640,55	15,211
640,75	15,666
640,94	15,349
641,14	16,450
641,34	17,582
641,54	18,924
641,73	20,334
641,93	21,762
642,13	24,243
642,33	26,344
642,53	28,946
642,72	32,345
642,92	35,648
643,12	38,301
643,32	43,215
643,51	47,542
643,71	51,530
643,91	55,619
644,11	59,602
644,30	63,821
644,50	67,243
644,70	71,108
644,90	73,455
645,09	75,876
645,29	78,995
645,49	81,790
645,69	83,196
645,88	83,841
646,08	84,900
646,28	87,069
646,48	88,001
646,67	87,588
646,87	87,267
647,07	88,022
647,26	88,479
647,46	89,272
647,66	87,718
647,86	89,440
648,05	89,808
648,25	89,298
648,45	90,385
648,65	90,498
648,84	89,104
649,04	90,952
649,24	89,854
649,43	90,570
649,63	89,538
649,83	90,360
650,03	90,680
650,22	89,727
650,42	88,761
650,62	89,098
650,81	88,534
651,01	89,121
651,21	88,779
651,40	88,492
651,60	88,573
651,80	87,869
652,00	88,052
652,19	87,380
652,39	86,542
652,59	85,194
652,78	86,046
652,98	85,866
653,18	84,724
653,37	82,954
653,57	81,769
653,77	79,690
653,96	77,969
654,16	76,613
654,36	73,782
654,55	70,890
654,75	67,652
654,95	63,851
655,14	60,662
655,34	56,751
655,54	53,501
655,73	49,205
655,93	45,346
656,13	41,199
656,32	37,250
656,52	33,646
656,72	30,539
656,91	28,158
657,11	25,239
657,31	22,625
657,50	20,568
657,70	18,750
657,90	17,267
658,09	16,079
658,29	14,727
658,49	14,084
658,68	12,813
658,88	12,383
659,07	11,995
659,27	11,632
659,47	11,476
659,66	11,421
659,86	11,581
660,06	11,281
660,25	11,387
660,45	10,893
660,64	11,222
660,84	10,893
661,04	11,052
661,23	10,889
661,43	10,579
661,63	10,227
661,82	10,386
662,02	10,796
662,21	10,225
662,41	10,218
662,61	10,452
662,80	10,265
663,00	10,289
663,19	10,119
663,39	10,070
663,59	10,100
663,78	10,423
663,98	10,677
664,17	10,148
664,37	10,183
664,57	10,322
664,76	10,553
664,96	10,393
665,15	10,266
665,35	10,219
665,55	10,330
665,74	10,128
665,94	10,009
666,13	10,667
666,33	10,435
666,53	10,282
666,72	10,580
666,92	10,207
667,11	10,371
667,31	10,537
667,50	10,615
667,70	10,139
667,90	10,059
668,09	10,212
668,29	9,626
668,48	10,133
668,68	10,078
668,87	9,694
669,07	10,031
669,26	10,047
669,46	9,871
669,66	9,881
669,85	9,810
670,05	9,817
670,24	9,723
670,44	10,087
670,63	10,223
670,83	10,175
671,02	9,780
671,22	10,148
671,42	9,898
671,61	10,002
671,81	9,819
672,00	10,149
672,20	10,052
672,39	10,155
672,59	9,922
672,78	10,212
672,98	9,932
673,17	9,966
673,37	10,043
673,56	9,884
673,76	9,889
673,95	9,742
674,15	10,095
674,34	9,973
674,54	9,907
674,73	9,610
674,93	9,871
675,13	9,538
675,32	9,660
675,52	9,912
675,71	9,910
675,91	10,018
676,10	9,628
676,30	9,904
676,49	10,050
676,69	10,119
676,88	10,306
677,08	10,292
677,27	9,927
677,47	9,854
677,66	10,135
677,86	9,814
678,05	10,345
678,24	9,845
678,44	10,291
678,63	9,959
678,83	10,249
679,02	9,962
679,22	10,200
679,41	10,046
679,61	10,219
679,80	10,059
680,00	9,965
680,19	9,962
680,39	10,145
680,58	10,141
680,78	9,856
680,97	10,042
681,17	10,019
681,36	9,751
681,56	9,869
681,75	10,080
681,94	10,042
682,14	9,694
682,33	9,533
682,53	9,610
682,72	9,731
682,92	9,898
683,11	10,110
683,31	10,108
683,50	9,772
683,69	9,981
683,89	9,917
684,08	10,124
684,28	10,120
684,47	9,904
684,67	9,736
684,86	9,744
685,06	9,834
685,25	10,083
685,44	9,734
685,64	9,852
685,83	9,857
686,03	9,590
686,22	9,641
686,42	9,432
686,61	10,009
686,80	9,595
687,00	10,082
687,19	9,748
687,39	9,953
687,58	9,677
687,77	10,010
687,97	9,835
688,16	10,139
688,36	9,985
688,55	9,960
688,74	10,022
688,94	9,557
689,13	10,221
689,33	9,728
689,52	9,967
689,71	10,173
689,91	9,703
690,10	9,708
690,30	9,990
690,49	9,842
690,68	9,748
690,88	9,598
691,07	9,875
691,27	9,850
691,46	9,794
691,65	9,837
691,85	9,913
692,04	9,745
692,23	9,592
692,43	9,979
692,62	9,935
692,82	9,886
693,01	9,697
693,20	9,733
693,40	9,592
693,59	9,585
693,78	9,743
693,98	9,287
694,17	9,792
694,36	9,587
694,56	10,056
694,75	9,762
694,94	9,669
695,14	9,866
695,33	9,965
695,53	9,634
695,72	9,922
695,91	9,862
696,11	9,927
696,30	9,592
696,49	9,997
696,69	9,543
696,88	9,518
697,07	9,629
697,27	9,556
697,46	9,766
697,65	10,350
697,85	9,728
698,04	10,127
698,23	9,905
698,43	10,043
698,62	9,483
698,81	10,125
699,01	9,672
699,20	9,520
699,39	9,384
699,58	9,566
699,78	9,416
699,97	9,576
700,16	9,556
700,36	9,475
700,55	9,410
700,74	9,479
700,94	9,499
701,13	9,860
701,32	9,973
701,52	9,782
701,71	10,028
701,90	9,864
702,09	9,612
702,29	10,072
702,48	9,941
702,67	10,018
702,87	9,871
703,06	9,835
703,25	9,645
703,44	9,905
703,64	9,825
703,83	9,732
704,02	9,928
704,22	10,032
704,41	9,812
704,60	9,743
704,79	9,709
704,99	9,448
705,18	9,704
705,37	9,588
705,56	10,083
705,76	9,455
705,95	9,787
706,14	9,721
706,33	9,976
706,53	9,891
706,72	9,869
706,91	9,728
707,11	9,354
707,30	9,542
707,49	9,396
707,68	9,953
707,88	9,491
708,07	9,565
708,26	9,975
708,45	9,648
708,64	9,380
708,84	9,785
709,03	9,675
709,22	9,806
709,41	10,065
709,61	9,807
709,80	9,721
709,99	9,990
710,18	10,421
710,38	9,981
710,57	10,093
710,76	9,675
710,95	9,974
711,14	9,738
711,34	9,702
711,53	9,799
711,72	9,447
711,91	9,571
712,11	9,885
712,30	9,527
712,49	9,509
712,68	9,704
712,87	9,776
713,07	9,540
713,26	9,330
713,45	9,630
713,64	9,648
713,83	9,884
714,03	9,852
714,22	9,370
714,41	9,971
714,60	9,807
714,79	9,704
714,99	9,963
715,18	9,804
715,37	9,650
715,56	9,865
715,75	9,704
715,94	10,297
716,14	9,880
716,33	9,612
716,52	10,138
716,71	9,697
716,90	9,575
717,10	9,687
717,29	9,562
717,48	9,697
717,67	9,915
717,86	9,730
718,05	9,673
718,24	10,008
718,44	9,959
718,63	9,471
718,82	10,134
719,01	9,487
719,20	9,833
719,39	9,310
719,59	9,396
719,78	9,207
719,97	9,991
720,16	9,781
720,35	9,540
720,54	9,585
720,73	9,403
720,93	10,039
721,12	9,818
721,31	10,000
721,50	9,880
721,69	10,008
721,88	9,817
722,07	9,699
722,27	10,005
722,46	9,862
722,65	9,595
722,84	9,692
723,03	9,693
723,22	9,588
723,41	9,575
723,60	9,796
723,79	9,531
723,99	9,813
724,18	9,850
724,37	9,650
724,56	10,115
724,75	9,698
724,94	10,059
725,13	9,829
725,32	9,942
725,51	10,106
725,71	10,093
725,90	10,029
726,09	9,806
726,28	9,869
726,47	9,736
726,66	9,959
726,85	9,785
727,04	9,493
727,23	9,954
727,42	9,459
727,61	9,869
727,81	9,518
728,00	9,401
728,19	9,271
728,38	9,175
728,57	9,657
728,76	9,705
728,95	9,757
729,14	9,755
729,33	9,758
729,52	9,966
729,71	9,518
729,90	9,713
730,09	9,890
730,28	10,090
730,48	9,675
730,67	9,990
730,86	9,800
731,05	9,941
731,24	9,918
731,43	10,187
731,62	10,043
731,81	9,634
732,00	9,997
732,19	9,675
732,38	9,555
732,57	9,744
732,76	9,435
732,95	9,448
733,14	9,815
733,33	9,520
733,52	10,033
733,71	9,616
733,90	9,701
734,09	9,800
734,28	9,752
734,47	9,749
734,66	9,625
734,85	9,364
735,04	9,729
735,23	9,195
735,42	9,675
735,61	9,672
735,81	9,645
736,00	9,611
736,19	9,740
736,38	9,699
736,57	9,611
736,76	9,373
736,95	9,263
737,14	9,430
737,33	9,702
737,52	9,509
737,71	9,550
737,90	9,652
738,09	9,986
738,28	9,751
738,47	9,693
738,66	9,768
738,85	9,416
739,04	9,431
739,22	9,672
739,41	9,732
739,60	9,573
739,79	9,569
739,98	9,601
740,17	9,187
740,36	9,271
740,55	9,786
740,74	9,320
740,93	9,450
741,12	9,546
741,31	9,408
741,50	9,880
741,69	9,664
741,88	10,045
742,07	9,788
742,26	10,025
742,45	9,735
742,64	9,707
742,83	9,745
743,02	9,964
743,21	9,779
743,40	9,571
743,59	9,747
743,78	9,908
743,97	9,827
744,16	9,896
744,34	9,496
744,53	9,935
744,72	10,182
744,91	9,388
745,10	9,760
745,29	9,979
745,48	9,857
745,67	9,856
745,86	9,620
746,05	9,878
746,24	9,733
746,43	9,851
746,62	9,681
746,81	9,990
747,00	10,249
747,18	10,218
747,37	9,900
747,56	9,601
747,75	9,839
747,94	9,946
748,13	10,313
748,32	10,033
748,51	9,701
748,70	9,885
748,89	9,634
749,08	9,917
749,26	9,846
749,45	9,559
749,64	9,897
749,83	9,792
750,02	10,181
750,21	9,763
750,40	9,874
750,59	9,972
750,78	9,729
750,96	9,921
751,15	10,233
751,34	10,026
751,53	10,140
751,72	10,113
751,91	9,933
752,10	10,432
752,29	10,381
752,47	9,972
752,66	10,195
752,85	9,984
753,04	10,363
753,23	9,714
753,42	10,103
753,61	10,172
753,80	10,385
753,98	9,880
754,17	10,281
754,36	10,274
754,55	10,389
754,74	10,229
754,93	10,232
755,12	10,518
755,30	10,635
755,49	10,688
755,68	10,446
755,87	10,169
756,06	10,425
756,25	10,120
756,43	10,817
756,62	10,567
756,81	10,659
757,00	10,915
757,19	10,793
757,38	10,619
757,56	10,551
757,75	10,618
757,94	10,709
758,13	10,510
758,32	10,769
758,51	10,789
758,69	10,788
758,88	11,463
759,07	11,816
759,26	11,948
759,45	12,149
759,63	12,233
759,82	12,385
760,01	12,648
760,20	12,550
760,39	12,785
760,57	13,222
760,76	13,076
760,95	13,012
761,14	13,406
761,33	13,469
761,51	13,326
761,70	13,500
761,89	13,871
762,08	13,363
762,27	13,712
762,45	13,928
762,64	14,122
762,83	14,176
763,02	14,571
763,21	14,215
763,39	14,643
763,58	14,568
763,77	15,043
763,96	15,141
764,14	14,426
764,33	15,694
764,52	15,781
764,71	15,700
764,89	16,282
765,08	16,048
765,27	16,240
765,46	17,205
765,65	17,154
765,83	18,724
766,02	19,193
766,21	19,398
766,40	20,327
766,58	20,887
766,77	21,423
766,96	22,054
767,15	23,601
767,33	23,524
767,52	25,083
767,71	25,267
767,90	26,020
768,08	27,353
768,27	27,885
768,46	28,540
768,64	29,967
768,83	31,239
769,02	31,880
769,21	34,411
769,39	35,009
769,58	37,295
769,77	38,966
769,96	40,406
770,14	42,976
770,33	45,338
770,52	46,982
770,70	51,374
770,89	52,622
771,08	56,031
771,27	58,518
771,45	61,746
771,64	64,471
771,83	68,386
772,01	70,737
772,20	72,300
772,39	75,040
772,57	79,160
772,76	80,235
772,95	81,862
773,14	83,694
773,32	85,446
773,51	86,632
773,70	87,589
773,88	89,579
774,07	91,953
774,26	91,734
774,44	92,288
774,63	91,886
774,82	95,903
775,00	93,439
775,19	94,181
775,38	94,275
775,56	96,013
775,75	94,824
775,94	95,857
776,12	95,378
776,31	95,400
776,50	96,399
776,68	95,908
776,87	95,971
777,06	95,863
777,24	95,727
777,43	96,226
777,62	94,749
777,80	96,437
777,99	95,730
778,18	95,152
778,36	95,681
778,55	95,340
778,74	96,387
778,92	93,570
779,11	95,955
779,29	93,247
779,48	94,972
779,67	94,783
779,85	94,841
780,04	94,984
780,23	94,401
780,41	92,324
780,60	94,402
780,79	92,258
780,97	93,382
781,16	91,662
781,34	92,512
781,53	91,522
781,72	91,224
781,90	92,165
782,09	91,858
782,28	89,914
782,46	90,291
782,65	89,066
782,83	86,791
783,02	86,080
783,21	85,087
783,39	83,148
783,58	81,635
783,76	79,224
783,95	77,658
784,14	75,691
784,32	73,353
784,51	71,519
784,69	69,288
784,88	66,721
785,06	65,438
785,25	61,314
785,44	58,861
785,62	56,366
785,81	53,978
785,99	51,100
786,18	48,330
786,37	46,146
786,55	43,990
786,74	40,894
786,92	38,982
787,11	37,373
787,29	35,058
787,48	32,271
787,67	31,498
787,85	28,807
788,04	27,844
788,22	25,767
788,41	24,237
788,59	22,764
788,78	20,822
788,96	19,673
789,15	19,174
789,34	17,555
789,52	16,677
789,71	16,110
789,89	15,233
790,08	14,401
790,26	14,595
790,45	13,060
790,63	13,170
790,82	12,589
791,00	11,853
791,19	12,160
791,38	11,767
791,56	11,627
791,75	11,597
791,93	11,298
792,12	10,895
792,30	10,693
792,49	11,419
792,67	10,734
792,86	10,739
793,04	10,818
793,23	10,292
793,41	10,208
793,60	10,327
793,78	10,941
793,97	10,655
794,15	10,556
794,34	10,179
794,52	10,399
794,71	11,152
794,89	10,634
795,08	10,706
795,26	10,396
795,45	10,721
795,63	10,700
795,82	10,088
796,00	9,623
796,19	10,421
796,37	9,999
796,56	9,931
796,74	10,221
796,93	9,685
797,11	9,869
797,30	9,433
797,48	10,303
797,67	9,840
797,85	9,991
798,04	9,808
798,22	10,035
798,41	10,057
798,59	10,306
798,77	9,786
798,96	9,861
799,14	9,795
799,33	9,921
799,51	9,701
799,70	10,077
799,88	9,777
800,07	9,535
800,25	9,779
800,44	9,474
800,62	9,217
800,80	9,507
800,99	9,282
801,17	9,617
801,36	9,676
801,54	9,923
801,73	9,672
801,91	9,892
802,10	10,167
802,28	10,588
802,46	9,481
802,65	10,054
802,83	9,824
803,02	9,930
803,20	10,008
803,39	10,025
803,57	9,590
803,75	9,712
803,94	10,170
804,12	10,294
804,31	9,847
804,49	9,960
804,67	9,944
804,86	10,054
805,04	9,449
805,23	10,120
805,41	10,255
805,59	9,540
805,78	9,903
805,96	10,021
806,15	10,113
806,33	9,699
806,51	9,904
806,70	9,181
806,88	10,020
807,07	9,629
807,25	9,706
807,43	9,200
807,62	9,286
807,80	9,839
807,99	9,671
808,17	9,583
808,35	10,185
808,54	9,778
808,72	9,945
808,90	10,053
809,09	9,782
809,27	10,274
809,46	9,903
809,64	9,486
809,82	9,684
810,01	10,077
810,19	9,213
810,37	9,516
810,56	9,895
810,74	9,209
810,92	9,813
811,11	9,508
811,29	10,432
811,48	9,320
811,66	9,789
811,84	10,138
812,03	9,790
812,21	9,790
812,39	9,931
812,58	9,782
812,76	9,911
812,94	9,741
813,13	9,425
813,31	9,641
813,49	10,475
813,68	9,681
813,86	9,967
814,04	9,184
814,23	9,713
814,41	8,920
814,59	9,265
814,78	9,356
814,96	9,142
815,14	9,599
815,33	9,332
815,51	8,997
815,69	9,283
815,87	9,825
816,06	9,397
816,24	9,588
816,42	9,725
816,61	9,445
816,79	9,935
816,97	9,702
817,16	9,573
817,34	9,517
817,52	10,206
817,70	9,338
817,89	9,703
818,07	9,390
818,25	8,824
818,44	9,458
818,62	9,356
818,80	10,032
818,98	9,112
819,17	9,007
819,35	9,058
819,53	9,504
819,72	9,655
819,90	9,153
820,08	9,417
820,26	9,680
820,45	9,427
820,63	9,962
820,81	9,580
820,99	9,931
821,18	9,149
821,36	9,353
821,54	9,918
821,73	9,110
821,91	9,125
822,09	9,012
822,27	9,678
822,46	9,929
822,64	9,862
822,82	9,762
823,00	9,792
823,19	9,392
823,37	9,357
823,55	9,121
823,73	9,577
823,91	9,468
824,10	9,009
824,28	9,278
824,46	9,289
824,64	9,356
824,83	9,598
825,01	9,872
825,19	9,688
825,37	9,951
825,56	9,446
825,74	9,358
825,92	9,242
826,10	9,981
826,28	9,690
826,47	9,660
826,65	10,205
826,83	10,015
827,01	9,418
827,19	9,769
827,38	9,832
827,56	9,993
827,74	9,432
827,92	9,923
828,10	10,368
828,29	9,669
828,47	9,408
828,65	9,723
828,83	9,717
829,01	9,870
829,20	9,269
829,38	9,849
829,56	9,516
829,74	9,183
829,92	9,141
830,10	9,290
830,29	9,475
830,47	9,336
830,65	9,309
830,83	9,988
831,01	9,723
831,20	9,391
831,38	9,427
831,56	9,606
831,74	9,701
831,92	9,695
832,10	9,556
832,29	10,344
832,47	9,153
832,65	9,759
832,83	8,912
833,01	9,754
833,19	10,033
833,37	9,778
833,56	9,680
833,74	9,714
833,92	8,934
834,10	10,065
834,28	9,209
834,46	9,455
834,64	9,583
834,83	9,413
835,01	9,715
835,19	9,916
835,37	9,415
835,55	9,430
835,73	9,827
835,91	9,304
836,09	9,698
836,28	9,101
836,46	9,338
836,64	9,153
836,82	9,166
837,00	9,605
837,18	9,474
837,36	9,488
837,54	9,810
837,72	9,507
837,91	8,932
838,09	9,316
838,27	9,181
838,45	9,577
838,63	10,046
838,81	9,855
838,99	10,174
839,17	10,382
839,35	9,732
839,53	9,888
839,72	10,324
839,90	9,754
840,08	10,005
840,26	9,966
840,44	10,136
840,62	9,977
840,80	9,719
840,98	10,075
841,16	9,516
841,34	9,848
841,52	10,030
841,70	10,325
841,89	9,629
842,07	9,932
842,25	10,292
842,43	9,676
842,61	9,626
842,79	10,041
842,97	9,262
843,15	9,916
843,33	10,091
843,51	9,272
843,69	9,723
843,87	9,771
844,05	9,788
844,23	9,956
844,41	9,801
844,59	9,119
844,77	9,460
844,95	9,474
845,13	9,652
845,31	9,109
845,50	9,611
845,68	9,675
845,86	9,569
846,04	9,874
846,22	9,687
846,40	9,476
846,58	9,768
846,76	9,632
846,94	10,374
847,12	10,179
847,30	9,510
847,48	10,047
847,66	9,211
847,84	9,309
848,02	9,702
848,20	10,205
848,38	10,007
848,56	9,244
848,74	10,391
848,92	9,607
849,10	9,361
849,28	9,249
849,46	9,281
849,64	9,343
849,82	9,742
850,00	10,393
850,18	8,992
850,36	9,839
850,54	9,925
850,72	9,990
850,90	9,737
851,08	10,427
851,26	10,496
851,44	10,057
851,62	9,989
851,80	8,912
851,98	9,702
852,16	9,493
852,34	10,047
852,52	9,148
852,70	10,217
852,87	9,690
853,05	9,996
853,23	9,690
853,41	10,025
853,59	9,317
853,77	9,094
853,95	9,254
854,13	9,102
854,31	9,696
854,49	9,817
854,67	10,347
854,85	10,153
855,03	10,362
855,21	10,222
855,39	9,757
855,57	10,270
855,75	10,541
855,93	10,763
856,11	11,023
856,28	10,165
856,46	9,930
856,64	10,476
856,82	11,015
857,00	10,049
857,18	11,100
857,36	11,493
857,54	11,672
857,72	10,573
857,90	11,597
858,08	11,723
858,26	11,591
858,44	11,942
858,61	11,996
858,79	12,451
858,97	12,584
859,15	12,366
859,33	12,847
859,51	12,723
859,69	12,146
859,87	12,743
860,05	12,770
860,23	12,645
860,40	13,467
860,58	13,065
860,76	13,592
860,94	13,612
861,12	13,779
861,30	13,347
861,48	14,635
861,66	14,268
861,84	15,458
862,01	14,889
862,19	14,735
862,37	14,769
862,55	14,965
862,73	15,550
862,91	16,229
863,09	16,325
863,27	17,100
863,44	17,517
863,62	17,922
863,80	17,398
863,98	17,839
864,16	19,055
864,34	19,497
864,52	19,205
864,69	19,545
864,87	20,254
865,05	20,859
865,23	22,105
865,41	21,752
865,59	23,312
865,76	24,117
865,94	23,724
866,12	25,475
866,30	25,127
866,48	26,060
866,66	27,384
866,83	28,332
867,01	29,035
867,19	29,905
867,37	31,838
867,55	31,744
867,73	31,859
867,90	32,542
868,08	33,347
868,26	33,357
868,44	34,651
868,62	36,661
868,79	37,428
868,97	38,057
869,15	38,952
869,33	40,000
869,51	42,788
869,69	43,175
869,86	44,848
870,04	44,858
870,22	46,732
870,40	48,658
870,57	50,538
870,75	51,860
870,93	55,208
871,11	58,778
871,29	58,722
871,46	62,612
871,64	64,104
871,82	66,652
872,00	69,983
872,18	70,982
872,35	73,956
872,53	76,195
872,71	78,330
872,89	78,384
873,06	80,773
873,24	80,338
873,42	83,535
873,60	83,642
873,77	85,888
873,95	84,731
874,13	85,272
874,31	85,779
874,49	85,358
874,66	86,754
874,84	87,477
875,02	86,928
875,20	86,772
875,37	86,595
875,55	85,904
875,73	85,257
875,91	84,035
876,08	83,433
876,26	83,649
876,44	83,146
876,61	82,809
876,79	82,771
876,97	81,950
877,15	80,215
877,32	81,266
877,50	81,410
877,68	81,571
877,86	79,531
878,03	81,067
878,21	80,554
878,39	79,781
878,56	78,085
878,74	76,234
878,92	76,335
879,10	76,942
879,27	76,359
879,45	75,266
879,63	75,229
879,80	74,617
879,98	74,763
880,16	74,808
880,34	72,861
880,51	71,370
880,69	70,151
880,87	70,405
881,04	68,925
881,22	65,559
881,40	64,664
881,57	62,462
881,75	61,326
881,93	58,098
882,10	56,596
882,28	53,861
882,46	52,779
882,63	49,966
882,81	45,493
882,99	43,824
883,16	40,083
883,34	38,613
883,52	35,632
883,69	32,631
883,87	30,844
884,05	28,753
884,22	26,530
884,40	24,594
884,58	22,635
884,75	21,082
884,93	18,354
885,11	17,123
885,28	15,625
885,46	14,272
885,64	13,068
885,81	13,572
885,99	12,105
886,17	11,598
886,34	11,249
886,52	10,497
886,70	9,521
886,87	9,997
887,05	10,238
887,22	9,798
887,40	9,433
887,58	9,222
887,75	8,921
887,93	9,499
888,11	9,039
888,28	8,129
888,46	8,324
888,63	8,528
888,81	8,771
888,99	8,642
889,16	8,259
889,34	8,722
889,51	8,525
889,69	8,337
889,87	9,022
890,04	8,229
890,22	8,994
890,39	8,566
890,57	8,776
890,75	8,787
890,92	8,498
891,10	7,762
891,27	7,867
891,45	8,287
891,63	8,244
891,80	7,988
891,98	8,152
892,15	8,165
892,33	7,869
892,51	8,116
892,68	8,248
892,86	8,112
893,03	8,921
893,21	7,695
893,38	7,929
893,56	8,458
893,74	8,742
893,91	7,990
894,09	8,555
894,26	7,942
894,44	7,758
894,61	7,480
894,79	7,637
894,96	7,948
895,14	8,245
895,32	8,444
895,49	7,097
895,67	7,992
895,84	7,515
896,02	7,708
896,19	7,457
896,37	7,542
896,54	7,251
896,72	8,035
896,89	7,506
897,07	7,271
897,25	7,133
897,42	7,361
897,60	8,231
897,77	7,960
897,95	7,599
898,12	7,786
898,30	7,088
898,47	7,630
898,65	7,302
898,82	6,964
899,00	7,021
899,17	7,295
899,35	7,321
899,52	7,304
899,70	7,679
899,87	7,296
900,05	7,872
900,22	8,134
900,40	7,787
900,57	7,451
900,75	7,162
900,92	7,162
901,10	7,566
901,27	7,291
901,45	7,547
901,62	7,572
901,80	6,877
901,97	7,321
902,15	7,051
902,32	7,472
902,50	7,222
902,67	7,439
902,85	6,954
903,02	6,739
903,20	7,084
903,37	7,191
903,54	7,228
903,72	7,481
903,89	7,129
904,07	6,986
904,24	6,661
904,42	6,676
904,59	7,014
904,77	7,261
904,94	7,585
905,12	6,993
905,29	7,491
905,47	6,738
905,64	7,801
905,81	7,833
905,99	7,581
906,16	7,060
906,34	6,370
906,51	7,173
906,69	7,368
906,86	6,807
907,03	7,448
907,21	7,489
907,38	7,489
907,56	6,813
907,73	7,443
907,91	7,331
908,08	6,826
908,25	6,883
908,43	7,083
908,60	6,778
908,78	7,292
908,95	6,960
909,13	6,526
909,30	5,703
909,47	6,627
909,65	6,594
909,82	6,291
910,00	6,626
910,17	6,747
910,34	6,386
910,52	6,328
910,69	6,754
910,87	6,363
911,04	6,628
911,21	6,965
911,39	6,262
911,56	6,571
911,73	6,833
911,91	6,367
912,08	6,561
912,26	6,544
912,43	7,148
912,60	6,623
912,78	6,416
912,95	6,744
913,13	6,472
913,30	6,690
913,47	6,501
913,65	6,484
913,82	7,512
913,99	5,778
914,17	6,791
914,34	6,457
914,51	6,427
914,69	6,117
914,86	7,174
915,03	6,552
915,21	6,082
915,38	6,442
915,56	6,455
915,73	5,529
915,90	5,913
916,08	7,292
916,25	6,067
916,42	6,658
916,60	6,012
916,77	6,000
916,94	5,832
917,12	6,290
917,29	5,571
917,46	6,055
917,64	5,764
917,81	6,388
917,98	6,187
918,16	5,429
918,33	6,051
918,50	6,083
918,67	5,816
918,85	6,002
919,02	6,008
919,19	6,289
919,37	5,644
919,54	5,507
919,71	6,018
919,89	5,429
920,06	6,050
920,23	5,054
920,41	6,057
920,58	5,576
920,75	6,145
920,92	5,133
921,10	5,768
921,27	5,520
921,44	5,956
921,62	5,564
921,79	5,882
921,96	6,931
922,13	6,189
922,31	5,803
922,48	5,923
922,65	5,680
922,82	5,848
923,00	5,567
923,17	5,240
923,34	5,452
923,52	5,417
923,69	5,051
923,86	5,706
924,03	5,693
924,21	5,378
924,38	5,674
924,55	6,206
924,72	5,263
924,90	5,334
925,07	5,794
925,24	4,916
925,41	5,282
925,59	4,843
925,76	5,313
925,93	4,711
926,10	4,061
926,28	5,594
926,45	5,009
926,62	4,970
926,79	4,759
926,96	5,330
927,14	5,702
927,31	5,493
927,48	5,319
927,65	5,229
927,83	5,709
928,00	5,776
928,17	5,057
928,34	4,524
928,51	4,489
928,69	5,068
928,86	5,197
929,03	5,093
929,20	5,269
929,37	4,704
929,55	5,420
929,72	4,709
929,89	4,566
930,06	4,211
930,23	5,572
930,41	4,656
930,58	5,483
930,75	5,257
930,92	4,576
931,09	5,311
931,27	4,918
931,44	5,102
931,61	4,737
931,78	5,263
931,95	4,747
932,12	5,313
932,30	4,749
932,47	4,675
932,64	4,900
932,81	4,697
932,98	5,061
933,16	4,691
933,33	4,767
933,50	4,359
933,67	4,904
933,84	3,957
934,01	4,525
934,18	4,188
934,36	4,297
934,53	4,822
934,70	4,960
934,87	4,875
935,04	4,774
935,21	4,559
935,38	4,791
935,56	5,274
935,73	4,696
935,90	4,393
936,07	4,974
936,24	4,909
936,41	4,749
936,58	4,254
936,76	5,052
936,93	4,635
937,10	4,112
937,27	4,718
937,44	4,827
937,61	5,573
937,78	4,215
937,95	4,691
938,13	4,564
938,30	3,899
938,47	4,802
938,64	4,737
938,81	4,850
938,98	4,851
939,15	4,204
939,32	4,622
939,49	4,374
939,66	4,724
939,84	4,875
940,01	4,514
940,18	3,788
940,35	4,182
940,52	4,192
940,69	4,536
940,86	4,653
941,03	4,725
941,20	4,995
941,37	4,721
941,54	4,272
941,71	4,651
941,89	5,221
942,06	3,964
942,23	4,454
942,40	4,597
942,57	4,531
942,74	4,572
942,91	5,054
943,08	4,586
943,25	3,931
943,42	3,784
943,59	4,669
943,76	4,348
943,93	4,096
944,10	4,455
944,27	4,075
944,44	4,937
944,61	4,911
944,79	5,032
944,96	4,426
945,13	4,171
945,30	5,068
945,47	4,286
945,64	4,010
945,81	4,709
945,98	4,770
946,15	4,009
946,32	4,340
946,49	4,697
946,66	4,223
946,83	4,382
947,00	4,294
947,17	4,764
947,34	4,741
947,51	4,479
947,68	5,156
947,85	4,374
948,02	4,549
948,19	3,659
948,36	4,481
948,53	3,846
948,70	4,658
948,87	4,760
949,04	3,753
949,21	4,141
949,38	4,873
949,55	5,556
949,72	3,840
949,89	4,809
950,06	4,456
950,23	4,088
950,40	4,847
950,57	4,182
950,74	4,261
950,91	4,340
951,08	4,588
951,25	4,701
951,42	5,122
951,59	4,686
951,76	4,232
951,93	3,956
952,10	5,524
952,27	5,058
952,44	4,789
952,61	4,041
952,77	5,654
952,94	6,268
953,11	5,552
953,28	4,437
953,45	4,557
953,62	3,867
953,79	4,754
953,96	5,585
954,13	5,049
954,30	5,282
954,47	4,467
954,64	5,574
954,81	5,387
954,98	6,254
955,15	5,352
955,32	5,191
955,49	5,591
955,65	5,830
955,82	5,241
955,99	5,062
956,16	5,580
956,33	5,376
956,50	4,787
956,67	5,854
956,84	5,763
957,01	4,639
957,18	5,081
957,35	6,858
957,52	6,014
957,68	5,214
957,85	5,615
958,02	6,210
958,19	5,575
958,36	6,576
958,53	6,649
958,70	6,741
958,87	6,385
959,04	5,934
959,21	5,250
959,37	6,655
959,54	6,404
959,71	6,495
959,88	7,178
960,05	6,708
960,22	6,608
960,39	6,189
960,56	6,302
960,72	6,718
960,89	9,444
961,06	6,451
961,23	6,703
961,40	7,690
961,57	5,853
961,74	6,581
961,90	7,651
962,07	7,719
962,24	7,261
962,41	5,160
962,58	6,505
962,75	6,255
962,92	5,472
963,08	6,792
963,25	7,492
963,42	6,543
963,59	5,197
963,76	6,185
963,93	6,712
964,10	7,746
964,26	7,347
964,43	6,632
964,60	5,556
964,77	5,338
964,94	8,816
965,10	8,047
965,27	6,650
965,44	6,474
965,61	7,992
965,78	8,527
965,95	6,338
966,11	6,631
966,28	6,423
966,45	5,875
966,62	8,319
966,79	8,772
966,95	6,742
967,12	7,037
967,29	4,780
967,46	8,288
967,63	7,973
967,79	8,035
967,96	7,711
968,13	5,444
968,30	5,650
968,47	5,841
968,63	6,861
968,80	7,515
968,97	7,603
969,14	5,680
969,31	6,909
969,47	7,896
969,64	6,709
969,81	6,804
969,98	5,862
970,14	7,568
970,31	7,518
970,48	8,926
970,65	6,780
970,81	7,172
970,98	6,245
971,15	8,483
971,32	7,383
971,48	5,486
971,65	7,219
971,82	8,726
971,99	7,084
972,15	7,240
972,32	8,701
972,49	10,431
972,66	9,372
972,82	10,485
972,99	6,118
973,16	8,500
973,33	9,388
973,49	8,677
973,66	7,160
973,83	8,733
974,00	7,758
974,16	8,337
974,33	9,302
974,50	9,572
974,67	6,894
974,83	6,821
975,00	5,797
975,17	7,245
975,33	9,265
975,50	8,261
975,67	5,636
975,84	8,100
976,00	6,782
976,17	7,535
976,34	6,784
976,50	7,395
976,67	8,747
976,84	6,523
977,00	8,246
977,17	5,821
977,34	6,910
977,50	8,301
977,67	9,599
977,84	6,990
978,01	8,434
978,17	6,499
978,34	7,272
978,51	6,207
978,67	9,229
978,84	8,330
979,01	7,233
979,17	9,601
979,34	7,629
979,51	9,644
979,67	7,274
979,84	6,661
980,01	7,664
980,17	8,460
980,34	8,999
980,51	7,550
980,67	9,976
980,84	8,413
981,01	6,597
981,17	7,205
981,34	9,229
981,50	8,163
981,67	10,775
981,84	7,052
982,00	7,365
982,17	8,147
982,34	10,122
982,50	8,781
982,67	6,539
982,84	6,344
983,00	7,778
983,17	8,570
983,33	7,812
983,50	5,149
983,67	9,015
983,83	9,775
984,00	6,737
984,17	8,743
984,33	4,378
984,50	7,752
984,66	8,935
984,83	6,460
985,00	7,430
985,16	8,413
985,33	8,537
985,49	9,017
985,66	8,571
985,83	5,336
985,99	7,944
986,16	9,475
986,32	6,057
986,49	7,827
986,66	7,676
986,82	8,284
986,99	8,041
987,15	8,454
987,32	10,358
987,49	6,945
987,65	5,911
987,82	7,006
987,98	6,866
988,15	9,466
988,31	7,239
988,48	7,729
988,65	7,342
988,81	9,096
988,98	8,065
989,14	8,811
989,31	9,273
989,47	7,718
989,64	7,520
989,80	7,168
989,97	9,851
990,14	9,455
990,30	9,237
990,47	10,132
990,63	10,064
990,80	8,704
990,96	9,128
991,13	8,924
991,29	7,938
991,46	10,700
991,62	10,034
991,79	6,551
991,95	8,568
992,12	8,658
992,29	9,562
992,45	8,161
992,62	7,418
992,78	8,818
992,95	7,607
993,11	8,800
993,28	9,918
993,44	6,387
993,61	9,781
993,77	3,546
993,94	8,980
994,10	5,716
994,27	8,797
994,43	7,434
994,60	6,520
994,76	9,938
994,93	3,345
995,09	9,300
995,26	8,146
995,42	6,832
995,59	6,368
995,75	8,579
995,92	6,844
996,08	12,962
996,25	10,006
996,41	8,505
996,58	7,797
996,74	10,526
996,91	8,772
997,07	6,259
997,23	6,439
997,40	6,729
997,56	7,536
997,73	9,271
997,89	9,531
998,06	10,320
998,22	8,573
998,39	8,814
998,55	10,225
998,72	8,129
998,88	9,595
999,05	7,335
999,21	7,309
999,37	8,590
999,54	12,420
999,70	9,647
999,87	11,568
1000,03	8,877
1000,20	7,708
1000,36	8,260
1000,52	8,567
1000,69	6,496
1000,85	10,515
1001,02	10,168
1001,18	8,512
1001,35	10,021
1001,51	11,510
1001,67	5,337
1001,84	8,424
1002,00	4,458
1002,17	9,629
1002,33	8,959
1002,50	9,207
1002,66	8,991
1002,82	6,206
1002,99	7,329
1003,15	8,400
1003,32	7,416
1003,48	8,102
1003,64	8,641
1003,81	9,170
1003,97	8,359
1004,14	4,766
1004,30	7,787
1004,46	9,850
1004,63	7,848
1004,79	9,831
1004,95	10,194
1005,12	6,831
1005,28	11,165
1005,45	11,586
1005,61	8,717
1005,77	7,567
1005,94	8,852
1006,10	8,751
1006,26	10,678
1006,43	12,422
1006,59	6,971
1006,76	7,230
1006,92	10,259
1007,08	9,756
1007,25	9,272
1007,41	6,560
1007,57	6,953
1007,74	11,770
1007,90	9,808
1008,06	10,762
1008,23	6,195
1008,39	5,365
1008,55	11,121
1008,72	8,715
1008,88	6,475
1009,04	5,565
1009,21	6,137
1009,37	8,063
1009,53	8,881
1009,70	7,944
1009,86	7,986
1010,02	7,370
1010,19	6,140
1010,35	9,248
1010,51	5,824
1010,68	12,349
1010,84	7,335
1011,00	8,190
1011,17	6,080
1011,33	7,491
1011,49	5,217
1011,66	9,586
1011,82	9,555
1011,98	7,207
1012,14	9,447
1012,31	12,816
1012,47	6,947
1012,63	6,947
1012,80	7,250
1012,96	9,355
1013,12	4,790
1013,29	9,557
1013,45	4,985
1013,61	10,267
1013,77	4,883
1013,94	8,350
1014,10	7,157
1014,26	7,849
1014,43	13,333
1014,59	8,351
1014,75	7,646
1014,91	8,247
1015,08	9,668
1015,24	8,028
1015,40	6,408
1015,56	8,601
1015,73	6,263
1015,89	8,774
1016,05	5,516
1016,21	10,677
1016,38	11,226
1016,54	10,510
1016,70	6,465
1016,86	5,128
1017,03	4,783
1017,19	8,031
1017,35	9,120
1017,51	6,092
1017,68	7,288
1017,84	5,675
1018,00	7,041
1018,16	11,791
1018,33	12,823
1018,49	5,335
1018,65	7,330
1018,81	7,328
1018,97	5,682
1019,14	11,547
1019,30	7,372
1019,46	12,187
1019,62	4,897
1019,79	7,639
1019,95	9,650
1020,11	15,284
1020,27	7,758
1020,43	10,390
1020,60	5,324
1020,76	11,429
1020,92	8,269
1021,08	5,495
1021,24	8,404
1021,41	5,263
1021,57	11,858
1021,73	5,792
1021,89	4,141
1022,05	9,880
1022,21	4,161
1022,38	13,939
1022,54	5,926
1022,70	11,722
1022,86	7,259
1023,02	11,255
1023,19	4,377
1023,35	8,174
1023,51	6,250
1023,67	9,186
1023,83	10,862
1023,99	7,584
1024,16	7,671
1024,32	2,710
1024,48	15,679
1024,64	3,693
1024,80	11,448
1024,96	11,462
1025,12	9,494
1025,29	10,750
1025,45	9,404
1025,61	11,258
1025,77	6,667
1025,93	9,946
1026,09	10,123
1026,26	7,018
1026,42	13,264
1026,58	4,843
1026,74	4,237
1026,90	10,336
1027,06	5,977
1027,22	-0,571
1027,38	9,259
1027,55	2,677
1027,71	6,743
1027,87	14,923
1028,03	8,069
1028,19	4,839
1028,35	6,094
1028,51	7,872
1028,67	3,614
1028,83	2,301
1029,00	11,206
1029,16	6,136
1029,32	8,507
1029,48	10,799
1029,64	10,210
1029,80	8,754
1029,96	5,178
1030,12	3,135
1030,28	6,218
1030,44	12,126
1030,61	9,335
1030,77	8,117
1030,93	10,860
1031,09	10,000
1031,25	7,563
1031,41	13,396
1031,57	3,716
1031,73	6,829
1031,89	1,325
1032,05	4,306
1032,21	4,500
1032,37	2,941
1032,53	9,744
1032,69	14,580
1032,86	2,426
1033,02	6,408
1033,18	3,425
1033,34	7,005
1033,50	12,354
1033,66	7,971
1033,82	6,496
1033,98	7,568
1034,14	2,102
1034,30	1,354
1034,46	5,188
1034,62	9,333
1034,78	6,357
1034,94	7,946
1035,10	11,624
1035,26	7,692
1035,42	3,036
1035,58	11,654
1035,74	4,800
1035,90	6,019
1036,06	-8,247
1036,22	8,750
1036,38	10,405
1036,54	-1,789
1036,70	-0,601
1036,86	9,770
1037,02	7,429
1037,18	12,075
1037,34	5,011
1037,50	3,306
1037,66	11,045
1037,82	7,219
1037,98	6,831
1038,14	10,874
1038,30	11,984
1038,46	13,002
1038,62	10,084
1038,78	6,327
1038,94	15,222
1039,10	-1,362
1039,26	-4,176
1039,42	26,653
1039,58	5,765
1039,74	-2,765
1039,90	7,661
1040,06	6,383
>>>>>End Processed Spectral Data<<<<<
