SpectraSuite Data File
++++++++++++++++++++++++++++++++++++
Date: Tue Jan 31 18:28:50 EET 2017
User: optolab
Spectrometer Serial Number: USB4C02475
Spectrometer Channel: 0
Integration Time (usec): 100000
Spectra Averaged: 1
Boxcar Smoothing: 0
Correct for Electrical Dark: No
Strobe/Lamp Enabled: No
Correct for Detector Non-linearity: No
Correct for Stray Light: No
Number of Pixels in Spectrum: 3648
>>>>>Begin Spectral Data<<<<<
344,91	1216,493
345,13	1216,493
345,35	1216,493
345,57	1173,486
345,79	1210,350
346,00	1798,117
346,22	1497,065
346,44	1544,168
346,66	1613,799
346,87	1505,257
347,09	1507,305
347,31	1466,346
347,53	1589,224
347,74	1560,552
347,96	1628,135
348,18	1499,113
348,40	1425,386
348,61	1648,615
348,83	1671,142
349,05	1669,095
349,27	1503,209
349,48	1656,807
349,70	1613,799
349,92	1609,703
350,14	1556,456
350,35	1656,807
350,57	1683,430
350,79	1619,943
351,01	1757,157
351,22	1593,320
351,44	1585,128
351,66	1509,353
351,87	1777,637
352,09	1667,047
352,31	1636,327
352,53	1640,423
352,74	1689,574
352,96	1703,910
353,18	1621,991
353,40	1619,943
353,61	1589,224
353,83	1640,423
354,05	1667,047
354,26	1587,176
354,48	1572,840
354,70	1587,176
354,92	1673,190
355,13	1677,286
355,35	1656,807
355,57	1677,286
355,78	1654,759
356,00	1751,013
356,22	1538,025
356,44	1648,615
356,65	1644,519
356,87	1681,382
357,09	1687,526
357,30	1593,320
357,52	1679,334
357,74	1603,560
357,95	1546,216
358,17	1589,224
358,39	1611,751
358,60	1527,785
358,82	1531,881
359,04	1626,087
359,26	1562,600
359,47	1583,080
359,69	1636,327
359,91	1636,327
360,12	1632,231
360,34	1703,910
360,56	1533,929
360,77	1544,168
360,99	1738,725
361,21	1540,072
361,42	1613,799
361,64	1667,047
361,86	1650,663
362,07	1818,596
362,29	1677,286
362,51	1603,560
362,72	1681,382
362,94	1593,320
363,16	1572,840
363,37	1585,128
363,59	1597,416
363,81	1511,401
364,02	1882,083
364,24	1552,360
364,46	1619,943
364,67	1611,751
364,89	1626,087
365,11	1531,881
365,32	1697,766
365,54	1578,984
365,76	1710,054
365,97	1652,711
366,19	1609,703
366,41	1556,456
366,62	1673,190
366,84	1509,353
367,05	1636,327
367,27	1562,600
367,49	1482,729
367,70	1556,456
367,92	1626,087
368,14	1564,648
368,35	1650,663
368,57	1556,456
368,79	1658,855
369,00	1550,312
369,22	1591,272
369,43	1673,190
369,65	1724,390
369,87	1673,190
370,08	1570,792
370,30	1583,080
370,51	1603,560
370,73	1538,025
370,95	1605,608
371,16	1476,585
371,38	1656,807
371,60	1615,847
371,81	1636,327
372,03	1644,519
372,24	1572,840
372,46	1691,622
372,68	1533,929
372,89	1564,648
373,11	1611,751
373,32	1664,999
373,54	1687,526
373,76	1648,615
373,97	1628,135
374,19	1638,375
374,40	1699,814
374,62	1615,847
374,84	1675,238
375,05	1531,881
375,27	1742,821
375,48	1550,312
375,70	1599,464
375,92	1574,888
376,13	1660,903
376,35	1529,833
376,56	1644,519
376,78	1660,903
376,99	1628,135
377,21	1523,689
377,43	1634,279
377,64	1587,176
377,86	1615,847
378,07	1591,272
378,29	1568,744
378,51	1609,703
378,72	1646,567
378,94	1615,847
379,15	1480,681
379,37	1589,224
379,58	1664,999
379,80	1556,456
380,01	1558,504
380,23	1568,744
380,45	1605,608
380,66	1621,991
380,88	1570,792
381,09	1699,814
381,31	1712,102
381,52	1595,368
381,74	1630,183
381,95	1656,807
382,17	1621,991
382,39	1605,608
382,60	1558,504
382,82	1527,785
383,03	1578,984
383,25	1560,552
383,46	1671,142
383,68	1583,080
383,89	1646,567
384,11	1621,991
384,32	1490,921
384,54	1574,888
384,76	1544,168
384,97	1630,183
385,19	1521,641
385,40	1662,951
385,62	1587,176
385,83	1662,951
386,05	1546,216
386,26	1613,799
386,48	1585,128
386,69	1576,936
386,91	1552,360
387,12	1531,881
387,34	1576,936
387,55	1468,394
387,77	1542,120
387,98	1456,106
388,20	1630,183
388,41	1544,168
388,63	1617,895
388,84	1599,464
389,06	1683,430
389,27	1630,183
389,49	1568,744
389,70	1726,438
389,92	1603,560
390,13	1454,058
390,35	1558,504
390,56	1662,951
390,78	1568,744
390,99	1505,257
391,21	1626,087
391,42	1626,087
391,64	1581,032
391,85	1581,032
392,07	1548,264
392,28	1568,744
392,50	1626,087
392,71	1501,161
392,93	1474,538
393,14	1546,216
393,36	1576,936
393,57	1601,512
393,79	1626,087
394,00	1595,368
394,22	1544,168
394,43	1503,209
394,65	1552,360
394,86	1548,264
395,08	1581,032
395,29	1460,202
395,50	1589,224
395,72	1540,072
395,93	1667,047
396,15	1664,999
396,36	1548,264
396,58	1611,751
396,79	1632,231
397,01	1591,272
397,22	1505,257
397,44	1521,641
397,65	1572,840
397,87	1499,113
398,08	1632,231
398,29	1562,600
398,51	1689,574
398,72	1570,792
398,94	1642,471
399,15	1587,176
399,37	1658,855
399,58	1439,722
399,80	1548,264
400,01	1585,128
400,22	1595,368
400,44	1621,991
400,65	1605,608
400,87	1634,279
401,08	1644,519
401,30	1572,840
401,51	1632,231
401,72	1599,464
401,94	1507,305
402,15	1615,847
402,37	1495,017
402,58	1513,449
402,80	1591,272
403,01	1568,744
403,22	1624,039
403,44	1640,423
403,65	1505,257
403,87	1488,873
404,08	1693,670
404,30	1552,360
404,51	1589,224
404,72	1599,464
404,94	1574,888
405,15	1638,375
405,37	1605,608
405,58	1548,264
405,79	1603,560
406,01	1656,807
406,22	1570,792
406,44	1589,224
406,65	1662,951
406,86	1664,999
407,08	1462,250
407,29	1650,663
407,51	1597,416
407,72	1691,622
407,93	1710,054
408,15	1626,087
408,36	1667,047
408,58	1683,430
408,79	1619,943
409,00	1654,759
409,22	1640,423
409,43	1617,895
409,64	1798,117
409,86	1755,109
410,07	1681,382
410,29	1589,224
410,50	1740,773
410,71	1677,286
410,93	1755,109
411,14	1728,486
411,35	1781,733
411,57	1818,596
411,78	1902,563
412,00	1777,637
412,21	1939,426
412,42	1855,460
412,64	1929,187
412,85	1796,069
413,06	1867,748
413,28	1841,124
413,49	1867,748
413,70	1966,050
413,92	2039,777
414,13	1855,460
414,34	1931,235
414,56	2138,079
414,77	2078,688
414,98	2105,312
415,20	2211,806
415,41	2144,223
415,63	2162,655
415,84	2162,655
416,05	2283,485
416,27	2283,485
416,48	2301,917
416,69	2273,245
416,91	2373,596
417,12	2277,341
417,33	2365,404
417,55	2449,371
417,76	2576,345
417,97	2428,891
418,19	2609,112
418,40	2582,489
418,61	2629,592
418,83	2623,448
419,04	2731,990
419,25	2748,374
419,46	2715,607
419,68	2830,293
419,89	2887,636
420,10	3096,529
420,32	3110,865
420,53	3059,665
420,74	3174,352
420,96	3203,023
421,17	3172,304
421,38	3329,997
421,60	3366,861
421,81	3317,709
422,02	3534,794
422,23	3581,897
422,45	3774,406
422,66	3803,078
422,87	3958,724
423,09	4091,842
423,30	4030,402
423,51	4319,166
423,73	4157,377
423,94	4313,022
424,15	4523,963
424,36	4517,819
424,58	4628,409
424,79	4841,398
425,00	4904,885
425,22	5003,188
425,43	5095,346
425,64	5103,538
425,85	5066,675
426,07	5640,106
426,28	5576,619
426,49	5625,770
426,71	5953,445
426,92	5926,822
427,13	6053,796
427,34	6475,677
427,56	6567,836
427,77	6664,090
427,98	6680,474
428,19	7128,979
428,41	7004,053
428,62	7088,020
428,83	7503,758
429,04	7530,381
429,26	7862,152
429,47	7937,927
429,68	8206,211
429,89	8011,654
430,11	8415,104
430,32	8654,716
430,53	8857,465
430,74	8912,760
430,96	9385,841
431,17	9391,985
431,38	9811,818
431,59	10270,563
431,81	10307,427
432,02	10346,338
432,23	11005,784
432,44	10841,947
432,66	11446,097
432,87	11368,275
433,08	11679,566
433,29	12095,303
433,51	12113,735
433,72	13152,055
433,93	12711,742
434,14	13379,380
434,35	13854,509
434,57	14028,586
434,78	14524,194
434,99	14360,357
435,20	14870,301
435,42	15331,094
435,63	15679,249
435,84	16312,071
436,05	16111,370
436,26	16776,960
436,48	17127,163
436,69	17837,808
436,90	18058,988
437,11	18493,158
437,32	18740,962
437,54	19922,640
437,75	20002,511
437,96	20008,655
438,17	20631,237
438,38	21122,750
438,60	22064,815
438,81	22154,926
439,02	23072,416
439,23	23299,740
439,44	23791,253
439,66	24241,806
439,87	24460,939
440,08	25288,318
440,29	25128,577
440,50	26259,055
440,72	26633,834
440,93	27217,505
441,14	27229,792
441,35	28323,408
441,56	28659,275
441,77	30246,450
441,99	30348,849
442,20	30594,605
442,41	30275,122
442,62	31657,501
442,83	31716,892
443,04	31766,043
443,26	32564,751
443,47	33005,064
443,68	33418,754
443,89	33904,123
444,10	34065,912
444,31	34393,587
444,53	33902,075
444,74	35231,206
444,95	35417,572
445,16	35515,874
445,37	35208,679
445,58	36511,187
445,80	35929,564
446,01	36623,825
446,22	36228,567
446,43	36216,279
446,64	35874,269
446,85	36158,936
447,06	36257,239
447,28	35962,331
447,49	36484,563
447,70	36021,722
447,91	35788,254
448,12	35859,933
448,33	36779,471
448,54	36765,135
448,76	36072,922
448,97	36316,630
449,18	35057,129
449,39	34219,510
449,60	35464,675
449,81	34893,292
450,02	35012,074
450,23	35093,992
450,45	34842,092
450,66	34086,392
450,87	35122,664
451,08	33732,093
451,29	33779,197
451,50	32767,500
451,71	33609,215
451,92	33310,212
452,13	32355,858
452,35	33093,127
452,56	33668,606
452,77	32994,825
452,98	32677,389
453,19	32120,342
453,40	32947,721
453,61	31989,272
453,82	32790,028
454,03	32146,965
454,25	32667,150
454,46	32142,870
454,67	31831,578
454,88	32908,810
455,09	33428,994
455,30	32359,954
455,51	32441,873
455,72	33031,688
455,93	33129,990
456,14	34094,584
456,35	33963,514
456,56	33555,968
456,78	34248,181
456,99	34252,277
457,20	34794,989
457,41	35386,852
457,62	36228,567
457,83	36220,375
458,04	35835,357
458,25	37887,422
458,46	37643,714
458,67	38555,060
458,88	38292,920
459,09	39409,063
459,30	39812,512
459,51	40037,789
459,73	40842,641
459,94	41454,983
460,15	42392,953
460,36	42499,448
460,57	44784,981
460,78	44838,228
460,99	44760,405
461,20	45727,046
461,41	45694,279
461,62	46095,681
461,83	47645,993
462,04	47463,724
462,25	48186,657
462,46	48590,107
462,67	50334,976
462,88	49753,353
463,09	49958,150
463,30	50668,795
463,51	52454,624
463,72	51983,591
463,93	51786,986
464,15	51463,407
464,36	53677,261
464,57	54154,438
464,78	54156,486
464,99	53933,257
465,20	55180,470
465,41	55121,079
465,62	54924,474
465,83	56378,532
466,04	55342,260
466,25	56005,801
466,46	56263,845
466,67	55962,794
466,88	56595,616
467,09	55876,779
467,30	57429,140
467,51	56468,642
467,72	57601,169
467,93	55043,256
468,14	55297,204
468,35	56880,284
468,56	56399,011
468,77	57111,705
468,98	56321,189
469,19	56054,953
469,40	55332,020
469,61	54666,430
469,82	55880,875
470,03	55352,499
470,24	54265,028
470,45	55596,208
470,66	53855,434
470,87	54961,337
471,08	53990,600
471,29	54705,341
471,50	53349,586
471,71	53677,261
471,92	53716,172
472,13	52753,627
472,34	52696,284
472,55	52448,480
472,76	51719,403
472,97	51492,078
473,18	51608,812
473,39	51619,052
473,60	51633,388
473,81	51156,211
474,01	50169,090
474,22	50683,131
474,43	50697,466
474,64	49589,515
474,85	48373,022
475,06	49335,567
475,27	49206,545
475,48	48244,000
475,69	48694,553
475,90	48760,088
476,11	47594,794
476,32	47400,237
476,53	48063,779
476,74	47162,672
476,95	47234,351
477,16	47355,181
477,37	47062,322
477,58	47662,377
477,79	46552,378
478,00	47228,207
478,21	46892,340
478,41	46566,713
478,62	46636,344
478,83	46843,189
479,04	47064,370
479,25	46277,950
479,46	46533,946
479,67	46495,035
479,88	46513,466
480,09	46832,949
480,30	47359,277
480,51	46605,625
480,72	46886,197
480,93	46892,340
481,14	47011,123
481,34	47205,680
481,55	47009,075
481,76	47205,680
481,97	47844,646
482,18	47858,982
482,39	48104,738
482,60	47764,775
482,81	48014,627
483,02	48413,981
483,23	48463,132
483,44	48450,845
483,65	48493,852
483,85	48332,062
484,06	48667,929
484,27	49554,700
484,48	48553,243
484,69	48729,368
484,90	49202,449
485,11	49003,796
485,32	49136,914
485,53	49229,073
485,73	49911,046
485,94	49763,593
486,15	49958,150
486,36	49544,460
486,57	50791,673
486,78	50054,404
486,99	50851,064
487,20	50597,116
487,41	50521,341
487,61	51444,975
487,82	51666,156
488,03	50969,846
488,24	51283,185
488,45	51416,303
488,66	51901,672
488,87	52061,414
489,08	52053,222
489,28	52419,808
489,49	52794,586
489,70	52849,882
489,91	53238,996
490,12	52813,018
490,33	52640,989
490,54	53540,047
490,74	53558,479
490,95	54279,364
491,16	53961,929
491,37	53947,593
491,58	54643,902
491,79	54604,991
492,00	54160,582
492,20	54652,094
492,41	54504,640
492,62	55082,168
492,83	54856,891
493,04	55442,610
493,25	55338,164
493,45	55114,935
493,66	56718,495
493,87	55749,805
494,08	56157,351
494,29	56495,266
494,50	56648,864
494,70	56499,362
494,91	56663,199
495,12	56550,561
495,33	56706,207
495,54	57595,025
495,75	57037,978
495,95	56986,778
496,16	57148,568
496,37	57304,214
496,58	57177,240
496,79	57330,837
496,99	57095,321
497,20	57732,239
497,41	57746,575
497,62	57934,988
497,83	57627,793
498,04	57603,217
498,24	57900,172
498,45	57685,136
498,66	57519,250
498,87	57803,918
499,08	57808,014
499,28	57719,951
499,49	57939,084
499,70	57457,811
499,91	57842,829
500,12	58272,903
500,32	57900,172
500,53	57945,228
500,74	57619,601
500,95	58295,430
501,15	57642,128
501,36	57058,457
501,57	57273,494
501,78	57898,125
501,99	56986,778
502,19	57068,697
502,40	57777,294
502,61	57025,690
502,82	57537,682
503,02	57080,985
503,23	57105,561
503,44	56876,188
503,65	57095,321
503,86	56292,517
504,06	56329,380
504,27	56048,809
504,48	56446,115
504,69	56976,539
504,89	55516,337
505,10	56059,049
505,31	56104,104
505,52	55940,266
505,72	55422,130
505,93	55401,651
506,14	55688,366
506,35	55336,116
506,55	55694,510
506,76	55329,972
506,97	55008,441
507,18	54854,843
507,38	54795,452
507,59	54817,980
507,80	54846,651
508,01	54404,290
508,21	54633,662
508,42	54615,231
508,63	54082,759
508,84	54160,582
509,04	53773,515
509,25	53763,276
509,46	53789,899
509,67	53757,132
509,87	54271,172
510,08	53839,050
510,29	53185,748
510,49	53722,316
510,70	52962,520
510,91	53562,575
511,12	53105,878
511,32	52995,287
511,53	53056,726
511,74	52931,800
511,94	52659,420
512,15	52935,896
512,36	52821,210
512,57	53273,811
512,77	52387,041
512,98	52995,287
513,19	52473,055
513,39	53282,003
513,60	52974,808
513,81	53247,188
514,01	52563,166
514,22	52356,321
514,43	53095,638
514,64	52548,830
514,84	52532,446
515,05	53271,763
515,26	52677,852
515,46	52540,638
515,67	52292,834
515,88	52790,490
516,08	52796,634
516,29	52815,066
516,50	52552,926
516,70	52659,420
516,91	53210,324
517,12	53101,782
517,32	53060,822
517,53	52331,745
517,74	52466,911
517,95	52866,265
518,15	52770,011
518,36	52651,229
518,57	53320,914
518,77	52413,664
518,98	52821,210
519,19	53206,228
519,39	52872,409
519,60	53017,815
519,80	53251,283
520,01	52853,978
520,22	52952,280
520,42	53042,391
520,63	53378,258
520,84	52815,066
521,04	53312,722
521,25	52825,306
521,46	53621,966
521,66	52796,634
521,87	52874,457
522,08	52972,760
522,28	52321,506
522,49	53062,870
522,70	52929,752
522,90	52907,225
523,11	52384,993
523,31	53011,671
523,52	52956,376
523,73	52628,701
523,93	53066,966
524,14	52288,738
524,35	52901,081
524,55	52464,863
524,76	52450,528
524,97	52727,003
525,17	52667,612
525,38	52405,472
525,58	52516,063
525,79	52538,590
526,00	52278,498
526,20	52419,808
526,41	51991,783
526,61	52608,221
526,82	51977,447
527,03	52272,354
527,23	52657,372
527,44	51799,274
527,64	51799,274
527,85	52382,945
528,06	52737,243
528,26	52137,188
528,47	51971,303
528,68	51842,281
528,88	52489,439
529,09	52122,853
529,29	52040,934
529,50	52200,675
529,70	52210,915
529,91	52683,996
530,12	52055,270
530,32	52225,251
530,53	52587,742
530,73	51991,783
530,94	51709,163
531,15	52409,568
531,35	52325,602
531,56	52266,210
531,76	52511,967
531,97	52282,594
532,17	52014,310
532,38	52561,118
532,59	52110,565
532,79	52845,786
533,00	51502,318
533,20	52415,712
533,41	51389,680
533,61	52002,022
533,82	52143,332
534,03	52247,779
534,23	52397,280
534,44	52499,679
534,64	52364,513
534,85	52417,760
535,05	51660,012
535,26	52315,362
535,46	52272,354
535,67	52608,221
535,88	52090,085
536,08	52438,240
536,29	52280,546
536,49	52208,867
536,70	52436,192
536,90	52376,801
537,11	52022,502
537,31	52430,048
537,52	52366,561
537,72	52186,340
537,93	52264,162
538,13	52690,140
538,34	52417,760
538,55	52311,266
538,75	52696,284
538,96	52221,155
539,16	52653,277
539,37	52139,236
539,57	52172,004
539,78	52489,439
539,98	52686,044
540,19	52253,923
540,39	52114,661
540,60	52413,664
540,80	52534,494
541,01	52739,291
541,21	52595,933
541,42	53105,878
541,62	52622,557
541,83	53079,254
542,03	52737,243
542,24	52704,476
542,44	53462,224
542,65	53267,667
542,85	52851,930
543,06	53251,283
543,26	52483,295
543,47	53159,125
543,67	52849,882
543,88	53429,457
544,08	52411,616
544,29	52948,184
544,49	52700,380
544,70	53290,195
544,90	53034,199
545,11	53697,741
545,31	53066,966
545,52	53279,955
545,72	53671,117
545,93	52960,472
546,13	53206,228
546,34	53734,604
546,54	54113,478
546,75	54015,176
546,95	53228,756
547,15	53505,232
547,36	53642,445
547,56	53699,789
547,77	53886,154
547,97	53425,361
548,18	53234,900
548,38	54273,220
548,59	54025,416
548,79	53896,394
549,00	53933,257
549,20	53736,652
549,41	53935,305
549,61	54011,080
549,81	53834,955
550,02	54140,102
550,22	54068,423
550,43	54176,965
550,63	54254,788
550,84	53841,098
551,04	54547,648
551,25	54371,522
551,45	54697,149
551,65	54201,541
551,86	54719,677
552,06	54383,810
552,27	54115,526
552,47	54248,644
552,68	54734,013
552,88	54379,714
553,08	54508,736
553,29	54232,260
553,49	54697,149
553,70	54871,227
553,90	54875,323
554,11	54150,342
554,31	55030,968
554,51	54359,235
554,72	54598,847
554,92	54756,540
555,13	54318,275
555,33	54668,478
555,53	54875,323
555,74	54637,758
555,94	54629,566
556,15	54762,684
556,35	54860,987
556,56	54432,961
556,76	54772,924
556,96	54752,445
557,17	55022,776
557,37	55196,854
557,58	55307,444
557,78	55428,274
557,98	55307,444
558,19	55665,839
558,39	55409,842
558,59	55403,699
558,80	55772,333
559,00	55360,691
559,21	55434,418
559,41	55952,554
559,61	55911,595
559,82	55577,776
560,02	55547,056
560,23	55608,495
560,43	56188,071
560,63	55723,182
560,84	55755,949
561,04	56050,857
561,24	56210,598
561,45	56040,617
561,65	55895,211
561,85	55991,466
562,06	56026,281
562,26	56091,816
562,47	55583,920
562,67	56132,775
562,87	55880,875
563,08	55979,178
563,28	55665,839
563,48	56237,222
563,69	56145,063
563,89	56407,203
564,09	55968,938
564,30	56007,849
564,50	56071,336
564,70	56517,794
564,91	56374,436
565,11	56495,266
565,31	56073,384
565,52	56870,044
565,72	56310,949
565,92	56200,358
566,13	56777,886
566,33	56954,011
566,53	56583,329
566,74	56505,506
566,94	56243,366
567,14	56652,960
567,35	56898,716
567,55	56786,078
567,75	57003,162
567,96	56800,413
568,16	56747,166
568,36	57033,882
568,57	56157,351
568,77	56607,904
568,97	56614,048
569,18	56599,712
569,38	56579,233
569,58	56755,358
569,79	56571,041
569,99	56669,343
570,19	56552,609
570,39	56958,107
570,60	56485,026
570,80	56947,867
571,00	57044,122
571,21	56644,768
571,41	56945,819
571,61	57181,335
571,82	56810,653
572,02	57529,490
572,22	56751,262
572,42	56728,734
572,63	57392,276
572,83	56747,166
573,03	56466,594
573,24	57085,081
573,44	56755,358
573,64	56620,192
573,84	57367,701
574,05	57439,380
574,25	57169,048
574,45	57232,535
574,66	57062,553
574,86	57318,549
575,06	57431,188
575,26	57003,162
575,47	57531,538
575,67	57377,940
575,87	57271,446
576,07	57889,933
576,28	57044,122
576,48	57767,055
576,68	57343,125
576,88	57592,977
577,09	57664,656
577,29	57726,095
577,49	57023,642
577,69	58137,737
577,90	57664,656
578,10	57803,918
578,30	57578,641
578,50	58031,242
578,71	57808,014
578,91	57918,604
579,11	57816,206
579,31	58068,106
579,52	57984,139
579,72	58072,202
579,92	58266,759
580,12	57195,671
580,33	57568,402
580,53	57930,892
580,73	57506,962
580,93	58276,999
581,13	57752,719
581,34	57531,538
581,54	57885,837
581,74	57986,187
581,94	57728,143
582,15	58057,866
582,35	57541,778
582,55	58051,722
582,75	57863,309
582,95	57635,985
583,16	58012,811
583,36	57664,656
583,56	57478,291
583,76	58315,910
583,96	57803,918
584,17	57480,339
584,37	57853,069
584,57	57363,605
584,77	58033,290
584,97	57963,660
585,18	57664,656
585,38	57971,851
585,58	58035,338
585,78	57427,092
585,98	57918,604
586,19	57781,390
586,39	58160,265
586,59	57797,774
586,79	57691,280
586,99	57879,693
587,20	58172,552
587,40	57863,309
587,60	58008,715
587,80	58420,357
588,00	57795,726
588,20	58262,663
588,41	58741,888
588,61	58621,058
588,81	58688,640
589,01	57857,165
589,21	58516,611
589,41	58766,463
589,62	58238,087
589,82	58666,113
590,02	58614,914
590,22	58408,069
590,42	58911,869
590,62	58586,242
590,83	58088,586
591,03	58965,116
591,23	58385,541
591,43	58920,061
591,63	58121,353
591,83	59339,895
592,03	58719,360
592,24	58872,958
592,44	58655,873
592,64	59016,315
592,84	58102,921
593,04	58954,876
593,24	59008,124
593,44	59190,393
593,65	58674,305
593,85	58608,770
594,05	58889,341
594,25	58406,021
594,45	58686,592
594,65	59079,802
594,85	58944,637
595,06	58414,213
595,26	58838,142
595,46	58674,305
595,66	59280,503
595,86	58692,736
596,06	58270,855
596,26	58868,862
596,46	58774,655
596,66	58113,161
596,87	58307,718
597,07	58842,238
597,27	58350,726
597,47	57998,475
597,67	58944,637
597,87	58023,051
598,07	57840,781
598,27	58162,312
598,47	57193,623
598,67	58016,907
598,88	57808,014
599,08	57625,745
599,28	57009,306
599,48	57425,044
599,68	57097,369
599,88	57691,280
600,08	57304,214
600,28	56915,100
600,48	56939,675
600,68	56870,044
600,88	56718,495
601,09	56704,159
601,29	56282,277
601,49	56253,606
601,69	56319,141
601,89	56327,332
602,09	56409,251
602,29	56728,734
602,49	56734,878
602,69	56358,052
602,89	55817,388
603,09	56755,358
603,29	56360,100
603,49	56579,233
603,69	56013,993
603,90	56030,377
604,10	56181,927
604,30	55809,196
604,50	56482,978
604,70	55635,119
604,90	56091,816
605,10	56081,576
605,30	55884,971
605,50	55588,016
605,70	54787,260
605,90	55512,241
606,10	55479,473
606,30	54744,253
606,50	55299,252
606,70	55397,555
606,90	54836,411
607,10	55159,990
607,30	54535,360
607,50	54717,629
607,70	54459,585
607,90	54994,105
608,10	53972,168
608,30	55057,592
608,50	54869,179
608,70	54049,991
608,90	54545,600
609,11	53976,264
609,31	53906,633
609,51	54199,493
609,71	53636,302
609,91	53724,364
610,11	54162,630
610,31	53773,515
610,51	53640,398
610,71	53961,929
610,91	53460,176
611,11	53763,276
611,31	53691,597
611,51	53107,926
611,71	53212,372
611,91	53294,291
612,11	53761,228
612,31	53124,309
612,51	53116,118
612,71	52894,937
612,91	53513,423
613,11	52636,893
613,31	53447,888
613,51	53206,228
613,71	53632,206
613,91	53521,615
614,11	52591,838
614,31	53470,416
614,50	52763,867
614,70	53380,305
614,90	52745,435
615,10	53736,652
615,30	53144,789
615,50	53425,361
615,70	53443,792
615,90	53572,815
616,10	53820,619
616,30	53368,018
616,50	53521,615
616,70	53011,671
616,90	53220,564
617,10	53425,361
617,30	53062,870
617,50	53488,848
617,70	53331,154
617,90	53269,715
618,10	53001,431
618,30	53609,678
618,50	53910,729
618,70	53669,069
618,90	53308,627
619,10	54351,043
619,30	53386,449
619,49	53609,678
619,69	53712,076
619,89	53746,892
620,09	54217,925
620,29	54338,755
620,49	54478,017
620,69	54066,375
620,89	54410,434
621,09	54293,700
621,29	54113,478
621,49	54527,168
621,69	54717,629
621,89	54543,552
622,09	55008,441
622,29	54840,507
622,48	55016,632
622,68	54785,212
622,88	54666,430
623,08	55534,769
623,28	55712,942
623,48	54930,618
623,68	55465,138
623,88	55852,204
624,08	56009,897
624,28	55962,794
624,48	56149,159
624,67	56104,104
624,87	56175,783
625,07	56726,686
625,27	56456,355
625,47	56437,923
625,67	56589,472
625,87	57171,096
626,07	57050,265
626,27	57207,959
626,47	57382,036
626,66	57457,811
626,86	57738,383
627,06	57863,309
627,26	57998,475
627,46	58399,877
627,66	58360,965
627,86	58279,047
628,06	58752,128
628,25	58297,478
628,45	58709,120
628,65	58754,175
628,85	58387,589
629,05	58356,870
629,25	58842,238
629,45	58868,862
629,65	58870,910
629,84	58694,784
630,04	58098,825
630,24	58457,220
630,44	58176,648
630,64	58084,490
630,84	57834,638
631,04	57222,295
631,23	56771,742
631,43	57142,424
631,63	55819,436
631,83	55293,108
632,03	55368,883
632,23	54389,954
632,42	53910,729
632,62	53574,862
632,82	52780,251
633,02	52114,661
633,22	51604,717
633,42	50877,688
633,62	50060,548
633,81	49538,316
634,01	48655,642
634,21	48618,778
634,41	47938,852
634,61	47209,776
634,80	46789,942
635,00	46406,972
635,20	45366,604
635,40	44883,283
635,60	44451,162
635,80	43736,421
635,99	43181,421
636,19	43242,860
636,39	42491,256
636,59	41878,913
636,79	42276,219
636,98	41334,153
637,18	40856,977
637,38	40582,549
637,58	40220,058
637,78	39945,630
637,97	39423,398
638,17	38720,945
638,37	38804,912
638,57	38055,355
638,77	38026,684
638,96	37801,407
639,16	37711,297
639,36	37524,931
639,56	37043,659
639,76	36693,456
639,95	36793,807
640,15	35904,988
640,35	35882,460
640,55	35472,867
640,75	35296,741
640,94	35366,372
641,14	34647,535
641,34	34915,819
641,54	34524,657
641,73	34495,986
641,93	33945,082
642,13	33910,267
642,33	33582,592
642,53	33412,610
642,72	33433,090
642,92	32947,721
643,12	32890,378
643,32	32744,972
643,51	32634,382
643,71	32654,862
643,91	32306,707
644,11	31487,520
644,30	31655,453
644,50	31458,848
644,70	31329,826
644,90	30940,712
645,09	31215,140
645,29	30889,513
645,49	30576,173
645,69	30459,439
645,88	30166,580
646,08	30154,292
646,28	30152,244
646,48	29992,502
646,67	29625,916
646,87	29394,495
647,07	29398,591
647,26	28941,894
647,46	28956,230
647,66	28800,585
647,86	28911,175
648,05	29126,212
648,25	28687,946
648,45	28952,134
648,65	28321,360
648,84	28118,611
649,04	28577,356
649,24	28290,640
649,43	28249,681
649,63	27938,390
649,83	27684,442
650,03	27526,748
650,22	27635,290
650,42	27508,316
650,62	27770,456
650,81	27258,464
651,01	27315,807
651,21	27526,748
651,40	27356,767
651,60	27024,996
651,80	26920,549
652,00	26842,726
652,19	27145,826
652,39	26791,527
652,59	26642,025
652,78	26775,143
652,98	26715,752
653,18	26433,133
653,37	26480,236
653,57	26377,838
653,77	26216,048
653,96	26318,446
654,16	26279,535
654,36	26242,672
654,55	26011,251
654,75	25945,716
654,95	25888,373
655,14	26019,443
655,34	25618,041
655,54	25798,262
655,73	25534,074
655,93	25427,580
656,13	25491,067
656,32	25310,846
656,52	25089,665
656,72	25087,617
656,91	25515,643
657,11	25755,255
657,31	25581,178
657,50	25550,458
657,70	25562,746
657,90	25441,916
658,09	25558,650
658,29	25630,329
658,49	25443,964
658,68	25783,927
658,88	25386,621
659,07	25695,864
659,27	25585,274
659,47	25396,860
659,66	25374,333
659,86	25505,403
660,06	25843,318
660,25	25650,809
660,45	25978,484
660,64	25835,126
660,84	25722,488
661,04	25908,853
661,23	25939,572
661,43	25886,325
661,63	25810,550
661,82	25742,967
662,02	25812,598
662,21	25931,380
662,41	26025,587
662,61	26162,801
662,80	25814,646
663,00	25826,934
663,19	25742,967
663,39	25966,196
663,59	25853,558
663,78	26267,247
663,98	26224,240
664,17	26543,723
664,37	26216,048
664,57	26537,579
664,76	26173,041
664,96	26699,369
665,15	26388,077
665,35	26461,804
665,55	26836,582
665,74	26642,025
665,94	26670,697
666,13	26891,878
666,33	27004,516
666,53	27221,601
666,72	27328,095
666,92	27156,066
667,11	27237,984
667,31	27651,674
667,50	27973,205
667,70	27856,471
667,90	27952,725
668,09	27807,320
668,29	28010,069
668,48	28384,847
668,68	28200,530
668,87	28530,253
669,07	28403,279
669,26	28790,345
669,46	28915,271
669,66	28794,441
669,85	28651,083
670,05	29150,787
670,24	28933,702
670,44	29503,038
670,63	29677,115
670,83	29580,861
671,02	29740,602
671,22	30029,366
671,42	30164,532
671,61	29879,864
671,81	29892,152
672,00	30750,251
672,20	30674,476
672,39	31082,022
672,59	31071,782
672,78	30971,431
672,98	31202,852
673,17	31620,638
673,37	31391,265
673,56	31841,818
673,76	32245,268
673,95	31956,504
674,15	32171,541
674,34	32312,851
674,54	32673,293
674,73	33093,127
674,93	33240,581
675,13	33484,289
675,32	33318,404
675,52	33689,086
675,71	33828,348
675,91	34084,344
676,10	34418,163
676,30	34242,038
676,49	34645,487
676,69	34872,812
676,88	34991,594
677,08	35565,025
677,27	35630,560
677,47	36034,010
677,66	36285,910
677,86	36412,884
678,05	36656,593
678,24	36810,190
678,44	37150,153
678,63	37469,636
678,83	37158,345
679,02	37629,378
679,22	38032,828
679,41	38557,108
679,61	38614,451
679,80	38905,262
680,00	39179,690
680,19	39452,070
680,39	40066,461
680,58	40103,324
680,78	40125,852
680,97	40502,678
681,17	41190,795
681,36	40918,416
681,56	41780,610
681,75	42147,197
681,94	42292,603
682,14	42603,894
682,33	42777,971
682,53	43470,185
682,72	43556,199
682,92	43955,553
683,11	44383,579
683,31	44596,568
683,50	44690,774
683,69	45356,364
683,89	45475,146
684,08	45587,784
684,28	46460,219
684,47	46697,783
684,67	46947,636
684,86	47584,554
685,06	47625,513
685,25	48112,930
685,44	48135,458
685,64	48997,652
685,83	48844,055
686,03	49204,497
686,22	49669,386
686,42	50214,146
686,61	50371,839
686,80	50517,245
687,00	51041,525
687,19	51571,949
687,39	51481,838
687,58	52038,886
687,77	52483,295
687,97	52694,236
688,16	53007,575
688,36	53146,837
688,55	53378,258
688,74	54467,777
688,94	54084,807
689,13	54604,991
689,33	55413,938
689,52	55352,499
689,71	55792,813
689,91	56513,698
690,10	56390,820
690,30	57033,882
690,49	57607,313
690,68	57797,774
690,88	57885,837
691,07	58489,988
691,27	58385,541
691,46	58213,512
691,65	58399,877
691,85	58629,249
692,04	58256,519
692,23	58451,076
692,43	58373,253
692,62	58248,327
692,82	57812,110
693,01	58430,596
693,20	57830,542
693,40	57494,675
693,59	57281,686
693,78	56917,148
693,98	56724,638
694,17	55770,285
694,36	55882,923
694,56	54856,891
694,75	53970,120
694,94	53667,021
695,14	52776,155
695,33	52198,628
695,53	51553,517
695,72	50603,260
695,91	50029,829
696,11	48983,317
696,30	48162,081
696,49	47252,783
696,69	45954,371
696,88	44991,825
697,07	43697,509
697,27	42775,923
697,46	41844,098
697,65	40983,951
697,85	39808,417
698,04	39259,561
698,23	37676,481
698,43	37328,326
698,62	35966,427
698,81	34756,078
699,01	33629,695
699,20	33048,072
699,39	32181,781
699,58	31188,516
699,78	30191,155
699,97	29371,968
700,16	28550,732
700,36	27201,121
700,55	26816,103
700,74	26050,162
700,94	25329,278
701,13	24620,680
701,32	24151,695
701,52	23781,013
701,71	22869,667
701,90	22259,372
702,09	21429,945
702,29	21079,742
702,48	20618,949
702,67	19699,411
702,87	19148,508
703,06	19033,822
703,25	18231,018
703,44	18028,269
703,64	17325,816
703,83	17100,539
704,02	16572,163
704,22	15902,477
704,41	15990,540
704,60	15566,610
704,79	14993,179
704,99	14647,072
705,18	14178,088
705,37	14024,490
705,56	13545,265
705,76	13375,284
705,95	12865,340
706,14	12631,871
706,33	12412,739
706,53	12197,702
706,72	11859,787
706,91	11380,562
707,11	11657,038
707,30	11050,839
707,49	10960,729
707,68	10702,685
707,88	10477,408
708,07	10245,988
708,26	10192,740
708,45	9994,088
708,64	9824,106
708,84	9637,741
709,03	9318,258
709,22	9127,797
709,41	8996,727
709,61	8793,978
709,80	8804,218
709,99	8615,805
710,18	8451,967
710,38	8204,163
710,57	8247,170
710,76	7923,591
710,95	7845,768
711,14	7624,588
711,34	7489,422
711,53	7513,997
711,72	7440,270
711,91	7391,119
712,11	7016,341
712,30	7083,924
712,49	6977,430
712,68	6709,146
712,87	6682,522
713,07	6578,076
713,26	6506,397
713,45	6461,341
713,64	6451,102
713,83	6322,080
714,03	6258,592
714,22	6217,633
714,41	6047,652
714,60	5812,135
714,79	5654,442
714,99	5980,069
715,18	5771,176
715,37	5670,825
715,56	5748,648
715,75	5769,128
715,94	5549,995
716,14	5701,545
716,33	5435,309
716,52	5341,102
716,71	5255,088
716,90	5361,582
717,10	5418,925
717,29	5035,955
717,48	5066,675
717,67	5064,627
717,86	5060,531
718,05	4917,173
718,24	4970,420
718,44	4757,431
718,63	4777,911
718,82	4777,911
719,01	4753,335
719,20	4831,158
719,39	4700,088
719,59	4579,258
719,78	4396,989
719,97	4607,930
720,16	4491,195
720,35	4519,867
720,54	4478,908
720,73	4444,092
720,93	4349,886
721,12	4331,454
721,31	4216,768
721,50	4237,247
721,69	4130,753
721,88	4196,288
722,07	4173,760
722,27	4132,801
722,46	3958,724
722,65	4145,089
722,84	3991,491
723,03	3968,963
723,22	3923,908
723,41	3925,956
723,60	3987,395
723,79	3876,805
723,99	3872,709
724,18	3776,454
724,37	3798,982
724,56	3819,462
724,75	3743,687
724,94	3680,200
725,13	3784,646
725,32	3712,967
725,51	3669,960
725,71	3665,864
725,90	3594,185
726,09	3608,521
726,28	3604,425
726,47	3557,322
726,66	3573,705
726,85	3499,979
727,04	3456,971
727,23	3430,348
727,42	3491,787
727,61	3352,525
727,81	3358,669
728,00	3528,650
728,19	3411,916
728,38	3317,709
728,57	3311,565
728,76	3379,148
728,95	3370,957
729,14	3282,894
729,33	3346,381
729,52	3323,853
729,71	3215,311
729,90	3190,735
730,09	3098,577
730,28	3141,584
730,48	3153,872
730,67	3190,735
730,86	3211,215
731,05	3145,680
731,24	3149,776
731,43	3088,337
731,62	3092,433
731,81	3166,160
732,00	3082,193
732,19	3117,008
732,38	3094,481
732,57	3037,138
732,76	2854,868
732,95	2977,747
733,14	2914,260
733,33	2916,308
733,52	2947,027
733,71	2942,931
733,90	2885,588
734,09	2996,178
734,28	2914,260
734,47	2867,156
734,66	2912,212
734,85	2899,924
735,04	2781,142
735,23	2830,293
735,42	2840,533
735,61	2912,212
735,81	2840,533
736,00	2801,621
736,19	2815,957
736,38	2738,134
736,57	2734,038
736,76	2834,389
736,95	2645,976
737,14	2711,511
737,33	2748,374
737,52	2762,710
737,71	2715,607
737,90	2736,086
738,09	2707,415
738,28	2738,134
738,47	2758,614
738,66	2594,776
738,85	2750,422
739,04	2705,367
739,22	2586,585
739,41	2629,592
739,60	2562,009
739,79	2539,481
739,98	2455,515
740,17	2549,721
740,36	2523,098
740,55	2516,954
740,74	2613,208
740,93	2570,201
741,12	2633,688
741,31	2490,330
741,50	2605,016
741,69	2494,426
741,88	2486,234
742,07	2500,570
742,26	2512,858
742,45	2502,618
742,64	2486,234
742,83	2359,260
743,02	2482,138
743,21	2441,179
743,40	2453,467
743,59	2473,946
743,78	2408,411
743,97	2455,515
744,16	2359,260
744,34	2371,548
744,53	2408,411
744,72	2381,788
744,91	2334,684
745,10	2326,492
745,29	2365,404
745,48	2406,363
745,67	2353,116
745,86	2416,603
746,05	2338,780
746,24	2351,068
746,43	2297,821
746,62	2424,795
746,81	2289,629
747,00	2346,972
747,18	2375,644
747,37	2346,972
747,56	2285,533
747,75	2242,526
747,94	2267,101
748,13	2320,349
748,32	2287,581
748,51	2277,341
748,70	2377,692
748,89	2191,327
749,08	2199,518
749,26	2174,943
749,45	2281,437
749,64	2209,758
749,83	2226,142
750,02	2201,566
750,21	2246,622
750,40	2258,910
750,59	2306,013
750,78	2295,773
750,96	2187,231
751,15	2158,559
751,34	2203,614
751,53	2254,814
751,72	2166,751
751,91	2162,655
752,10	2152,415
752,29	2187,231
752,47	2119,648
752,66	2105,312
752,85	2109,408
753,04	2222,046
753,23	2033,633
753,42	2238,430
753,61	2119,648
753,80	2162,655
753,98	2113,504
754,17	2142,175
754,36	2056,161
754,55	1970,146
754,74	2154,463
754,93	2070,496
755,12	2099,168
755,30	1968,098
755,49	2162,655
755,68	2142,175
755,87	2023,393
756,06	2095,072
756,25	2076,640
756,43	2011,105
756,62	1972,194
756,81	2025,441
757,00	2152,415
757,19	1982,434
757,38	2021,345
757,56	2031,585
757,75	2015,201
757,94	1929,187
758,13	2047,969
758,32	1925,091
758,51	2011,105
758,69	2039,777
758,88	2021,345
759,07	1951,714
759,26	2062,305
759,45	1980,386
759,63	2013,153
759,82	1892,323
760,01	2027,489
760,20	1996,770
760,39	1972,194
760,57	1959,906
760,76	1968,098
760,95	1951,714
761,14	1953,762
761,33	1959,906
761,51	1927,139
761,70	2007,009
761,89	1906,659
762,08	1826,788
762,27	1923,043
762,45	1847,268
762,64	1916,899
762,83	1980,386
763,02	1980,386
763,21	1949,666
763,39	1900,515
763,58	1925,091
763,77	1837,028
763,96	1744,869
764,14	1941,474
764,33	1863,652
764,52	1925,091
764,71	1857,508
764,89	1970,146
765,08	1972,194
765,27	1914,851
765,46	1920,995
765,65	1824,740
765,83	1822,692
766,02	1912,803
766,21	1910,755
766,40	1888,227
766,58	1904,611
766,77	1847,268
766,96	1841,124
767,15	1857,508
767,33	1828,836
767,52	1939,426
767,71	1810,404
767,90	1867,748
768,08	1908,707
768,27	1894,371
768,46	1859,556
768,64	1896,419
768,83	1755,109
769,02	1865,700
769,21	1830,884
769,39	1769,445
769,58	1845,220
769,77	1916,899
769,96	1763,301
770,14	1966,050
770,33	1824,740
770,52	1839,076
770,70	1906,659
770,89	1855,460
771,08	1818,596
771,27	1875,939
771,45	1724,390
771,64	1734,630
771,83	1837,028
772,01	1738,725
772,20	1791,973
772,39	1824,740
772,57	1783,781
772,76	1763,301
772,95	1845,220
773,14	1818,596
773,32	1761,253
773,51	1869,795
773,70	1753,061
773,88	1886,179
774,07	1759,205
774,26	1740,773
774,44	1740,773
774,63	1689,574
774,82	1679,334
775,00	1886,179
775,19	1841,124
775,38	1751,013
775,56	1748,965
775,75	1882,083
775,94	1712,102
776,12	1626,087
776,31	1771,493
776,50	1761,253
776,68	1789,925
776,87	1748,965
777,06	1746,917
777,24	1748,965
777,43	1695,718
777,62	1753,061
777,80	1755,109
777,99	1802,212
778,18	1742,821
778,36	1712,102
778,55	1695,718
778,74	1767,397
778,92	1787,877
779,11	1714,150
779,29	1691,622
779,48	1738,725
779,67	1744,869
779,85	1611,751
780,04	1744,869
780,23	1744,869
780,41	1787,877
780,60	1783,781
780,79	1742,821
780,97	1679,334
781,16	1675,238
781,34	1730,534
781,53	1779,685
781,72	1634,279
781,90	1597,416
782,09	1675,238
782,28	1787,877
782,46	1734,630
782,65	1675,238
782,83	1730,534
783,02	1624,039
783,21	1628,135
783,39	1765,349
783,58	1726,438
783,76	1630,183
783,95	1714,150
784,14	1716,198
784,32	1652,711
784,51	1753,061
784,69	1794,021
784,88	1763,301
785,06	1710,054
785,25	1718,246
785,44	1734,630
785,62	1726,438
785,81	1751,013
785,99	1794,021
786,18	1626,087
786,37	1693,670
786,55	1724,390
786,74	1675,238
786,92	1822,692
787,11	1701,862
787,29	1685,478
787,48	1675,238
787,67	1736,678
787,85	1732,582
788,04	1691,622
788,22	1607,655
788,41	1777,637
788,59	1652,711
788,78	1712,102
788,96	1601,512
789,15	1710,054
789,34	1636,327
789,52	1736,678
789,71	1593,320
789,89	1689,574
790,08	1732,582
790,26	1642,471
790,45	1708,006
790,63	1710,054
790,82	1730,534
791,00	1650,663
791,19	1662,951
791,38	1794,021
791,56	1601,512
791,75	1628,135
791,93	1675,238
792,12	1771,493
792,30	1724,390
792,49	1654,759
792,67	1679,334
792,86	1619,943
793,04	1748,965
793,23	1660,903
793,41	1699,814
793,60	1777,637
793,78	1724,390
793,97	1718,246
794,15	1695,718
794,34	1626,087
794,52	1720,294
794,71	1765,349
794,89	1738,725
795,08	1777,637
795,26	1638,375
795,45	1650,663
795,63	1814,500
795,82	1644,519
796,00	1613,799
796,19	1630,183
796,37	1738,725
796,56	1617,895
796,74	1677,286
796,93	1636,327
797,11	1718,246
797,30	1587,176
797,48	1736,678
797,67	1697,766
797,85	1693,670
798,04	1683,430
798,22	1748,965
798,41	1675,238
798,59	1699,814
798,77	1640,423
798,96	1630,183
799,14	1693,670
799,33	1648,615
799,51	1630,183
799,70	1697,766
799,88	1699,814
800,07	1677,286
800,25	1687,526
800,44	1634,279
800,62	1748,965
800,80	1662,951
800,99	1691,622
801,17	1673,190
801,36	1693,670
801,54	1744,869
801,73	1718,246
801,91	1626,087
802,10	1636,327
802,28	1703,910
802,46	1714,150
802,65	1761,253
802,83	1802,212
803,02	1789,925
803,20	1708,006
803,39	1595,368
803,57	1767,397
803,75	1712,102
803,94	1671,142
804,12	1705,958
804,31	1636,327
804,49	1703,910
804,67	1718,246
804,86	1736,678
805,04	1683,430
805,23	1685,478
805,41	1660,903
805,59	1757,157
805,78	1662,951
805,96	1775,589
806,15	1751,013
806,33	1804,260
806,51	1693,670
806,70	1730,534
806,88	1732,582
807,07	1679,334
807,25	1740,773
807,43	1683,430
807,62	1693,670
807,80	1703,910
807,99	1710,054
808,17	1736,678
808,35	1816,548
808,54	1775,589
808,72	1759,205
808,90	1763,301
809,09	1787,877
809,27	1695,718
809,46	1734,630
809,64	1687,526
809,82	1808,356
810,01	1775,589
810,19	1796,069
810,37	1736,678
810,56	1787,877
810,74	1679,334
810,92	1837,028
811,11	1789,925
811,29	1796,069
811,48	1691,622
811,66	1783,781
811,84	1769,445
812,03	1810,404
812,21	1794,021
812,39	1800,165
812,58	1701,862
812,76	1779,685
812,94	1775,589
813,13	1841,124
813,31	1804,260
813,49	1855,460
813,68	1810,404
813,86	1802,212
814,04	1701,862
814,23	1771,493
814,41	1744,869
814,59	1777,637
814,78	1789,925
814,96	1839,076
815,14	1877,987
815,33	1812,452
815,51	1798,117
815,69	1673,190
815,87	1748,965
816,06	1867,748
816,24	1839,076
816,42	1781,733
816,61	1738,725
816,79	1873,891
816,97	1775,589
817,16	1818,596
817,34	1839,076
817,52	1832,932
817,70	1951,714
817,89	1834,980
818,07	1789,925
818,25	1781,733
818,44	1927,139
818,62	1841,124
818,80	1859,556
818,98	1886,179
819,17	1931,235
819,35	1816,548
819,53	1849,316
819,72	1861,604
819,90	1882,083
820,08	1779,685
820,26	1900,515
820,45	1832,932
820,63	1935,330
820,81	1861,604
820,99	1896,419
821,18	1843,172
821,36	1906,659
821,54	1949,666
821,73	1877,987
821,91	1810,404
822,09	1845,220
822,27	2007,009
822,46	1939,426
822,64	1916,899
822,82	1978,338
823,00	1900,515
823,19	1957,858
823,37	1968,098
823,55	1937,378
823,73	1865,700
823,91	1816,548
824,10	1933,282
824,28	1992,674
824,46	1916,899
824,64	1941,474
824,83	1947,618
825,01	1841,124
825,19	1882,083
825,37	1904,611
825,56	2007,009
825,74	1925,091
825,92	1951,714
826,10	2023,393
826,28	2027,489
826,47	1933,282
826,65	2056,161
826,83	1937,378
827,01	1933,282
827,19	2068,448
827,38	2099,168
827,56	2007,009
827,74	2029,537
827,92	1939,426
828,10	2115,552
828,29	2138,079
828,47	2076,640
828,65	1972,194
828,83	1988,578
829,01	2011,105
829,20	2019,297
829,38	1974,242
829,56	2080,736
829,74	1978,338
829,92	2037,729
830,10	2017,249
830,29	1964,002
830,47	2076,640
830,65	1957,858
830,83	2131,935
831,01	1959,906
831,20	2099,168
831,38	2078,688
831,56	2097,120
831,74	2107,360
831,92	2062,305
832,10	2084,832
832,29	2064,352
832,47	2072,544
832,65	2086,880
832,83	2142,175
833,01	2162,655
833,19	2123,744
833,37	2129,888
833,56	2136,031
833,74	2088,928
833,92	2064,352
834,10	2107,360
834,28	2164,703
834,46	2281,437
834,64	2127,840
834,83	2277,341
835,01	2365,404
835,19	2121,696
835,37	2136,031
835,55	2152,415
835,73	2285,533
835,91	2146,271
836,09	2154,463
836,28	2219,998
836,46	2158,559
836,64	2250,718
836,82	2174,943
837,00	2312,157
837,18	2140,127
837,36	2191,327
837,54	2293,725
837,72	2336,732
837,91	2224,094
838,09	2207,710
838,27	2346,972
838,45	2189,279
838,63	2215,902
838,81	2281,437
838,99	2289,629
839,17	2244,574
839,35	2492,378
839,53	2349,020
839,72	2252,766
839,90	2377,692
840,08	2320,349
840,26	2344,924
840,44	2310,109
840,62	2248,670
840,80	2447,323
840,98	2451,419
841,16	2349,020
841,34	2367,452
841,52	2447,323
841,70	2375,644
841,89	2371,548
842,07	2402,267
842,25	2471,898
842,43	2332,636
842,61	2447,323
842,79	2465,754
842,97	2363,356
843,15	2547,673
843,33	2473,946
843,51	2428,891
843,69	2486,234
843,87	2459,610
844,05	2500,570
844,23	2580,441
844,41	2439,131
844,59	2451,419
844,77	2510,810
844,95	2379,740
845,13	2482,138
845,31	2475,994
845,50	2531,289
845,68	2498,522
845,86	2496,474
846,04	2668,503
846,22	2617,304
846,40	2449,371
846,58	2428,891
846,76	2432,987
846,94	2631,640
847,12	2492,378
847,30	2572,249
847,48	2621,400
847,66	2600,920
847,84	2641,880
848,02	2668,503
848,20	2660,311
848,38	2707,415
848,56	2717,655
848,74	2617,304
848,92	2600,920
849,10	2680,791
849,28	2844,629
849,46	2731,990
849,64	2709,463
849,82	2723,798
850,00	2783,190
850,18	2795,477
850,36	2723,798
850,54	2787,285
850,72	2838,485
850,90	2846,677
851,08	2746,326
851,26	2887,636
851,44	2789,333
851,62	2664,407
851,80	2869,204
851,98	2940,883
852,16	2979,795
852,34	2924,499
852,52	2904,020
852,70	2867,156
852,87	2887,636
853,05	2908,116
853,23	2869,204
853,41	2944,979
853,59	3074,001
853,77	2955,219
853,95	2961,363
854,13	2899,924
854,31	3090,385
854,49	2992,082
854,67	2924,499
854,85	2987,986
855,03	3041,234
855,21	3059,665
855,39	3026,898
855,57	2914,260
855,75	3026,898
855,93	3051,473
856,11	3137,488
856,28	3049,425
856,46	3002,322
856,64	3166,160
856,82	3096,529
857,00	3086,289
857,18	3055,569
857,36	3203,023
857,54	3080,145
857,72	3127,248
857,90	3076,049
858,08	3198,927
858,26	3188,687
858,44	3233,743
858,61	3276,750
858,79	3190,735
858,97	3387,340
859,15	3342,285
859,33	3231,695
859,51	3256,270
859,69	3213,263
859,87	3209,167
860,05	3270,606
860,23	3141,584
860,40	3422,156
860,58	3391,436
860,76	3385,292
860,94	3434,444
861,12	3463,115
861,30	3420,108
861,48	3393,484
861,66	3413,964
861,84	3389,388
862,01	3598,281
862,19	3416,012
862,37	3411,916
862,55	3514,314
862,73	3526,602
862,91	3493,835
863,09	3497,931
863,27	3514,314
863,44	3530,698
863,62	3475,403
863,80	3649,480
863,98	3688,392
864,16	3635,145
864,34	3526,602
864,52	3717,063
864,69	3588,041
864,87	3553,226
865,05	3692,488
865,23	3583,945
865,41	3663,816
865,59	3749,831
865,76	3854,277
865,94	3801,030
866,12	3790,790
866,30	3841,989
866,48	3792,838
866,66	3823,558
866,83	3817,414
867,01	3770,310
867,19	3997,635
867,37	3891,141
867,55	3872,709
867,73	3987,395
867,90	3891,141
868,08	4038,594
868,26	3825,606
868,44	3925,956
868,62	3956,676
868,79	3995,587
868,97	4065,218
869,15	3876,805
869,33	4014,019
869,51	4071,362
869,69	4001,731
869,86	3950,532
870,04	4061,122
870,22	4163,520
870,40	4132,801
870,57	3989,443
870,75	4134,849
870,93	4169,664
871,11	4194,240
871,29	4192,192
871,46	4204,480
871,64	4157,377
871,82	4194,240
872,00	4300,734
872,18	4313,022
872,35	4345,790
872,53	4325,310
872,71	4362,173
872,89	4419,517
873,06	4386,749
873,24	4429,756
873,42	4452,284
873,60	4431,804
873,77	4579,258
873,95	4423,612
874,13	4581,306
874,31	4566,970
874,49	4577,210
874,66	4519,867
874,84	4538,299
875,02	4640,697
875,20	4741,048
875,37	4609,978
875,55	4691,896
875,73	4622,265
875,91	4851,638
876,08	4728,760
876,26	4810,679
876,44	4868,022
876,61	4898,741
876,79	5113,778
876,97	5054,387
877,15	4886,453
877,32	4968,372
877,50	5130,162
877,68	5068,723
877,86	4870,070
878,03	5328,815
878,21	5099,442
878,39	5117,874
878,56	5132,210
878,74	5179,313
878,92	5267,376
879,10	5267,376
879,27	5105,586
879,45	5404,590
879,63	5500,844
879,80	5470,125
879,98	5279,663
880,16	5476,268
880,34	5386,158
880,51	5361,582
880,69	5564,331
880,87	5476,268
881,04	5722,025
881,22	5775,272
881,40	5756,840
881,57	5648,298
881,75	5715,881
881,93	6012,836
882,10	5765,032
882,28	5959,589
882,46	5834,663
882,63	5889,958
882,81	5861,287
882,99	5896,102
883,16	5930,918
883,34	6066,083
883,52	5994,405
883,69	6123,427
883,87	6221,729
884,05	6047,652
884,22	6424,478
884,40	6070,179
884,58	6369,183
884,75	6447,006
884,93	6311,840
885,11	6334,367
885,28	6197,153
885,46	6543,260
885,64	6576,028
885,81	6598,555
885,99	6653,850
886,17	6688,666
886,34	6647,707
886,52	6799,256
886,70	6682,522
886,87	6797,208
887,05	6797,208
887,22	6956,950
887,40	6825,880
887,58	6805,400
887,75	6958,998
887,93	6920,086
888,11	6877,079
888,28	6909,847
888,46	6991,765
888,63	7188,370
888,81	7083,924
888,99	7313,296
889,16	7133,075
889,34	7227,282
889,51	7405,455
889,69	7325,584
889,87	7284,625
890,04	7358,352
890,22	7470,990
890,39	7417,743
890,57	7479,182
890,75	7595,916
890,92	7786,377
891,10	8030,085
891,27	7737,226
891,45	7974,790
891,63	7786,377
891,80	7786,377
891,98	7948,167
892,15	7694,219
892,33	7970,694
892,51	7999,366
892,68	8157,060
892,86	8071,045
893,03	8249,218
893,21	8019,846
893,38	8226,690
893,56	8105,860
893,74	8161,155
893,91	8167,299
894,09	8191,875
894,26	8187,779
894,44	8210,307
894,61	8402,816
894,79	8439,679
894,96	8337,281
895,14	8447,871
895,32	8497,022
895,49	8314,753
895,67	8468,351
895,84	8435,583
896,02	8513,406
896,19	8726,395
896,37	8738,683
896,54	8570,749
896,72	8757,114
896,89	8824,697
897,07	8949,623
897,25	8730,491
897,42	8937,336
897,60	8904,568
897,77	8875,897
897,95	8886,136
898,12	8816,505
898,30	8992,631
898,47	8947,575
898,65	8757,114
898,82	8884,088
899,00	9064,310
899,17	9039,734
899,35	9256,819
899,52	9129,845
899,70	8963,959
899,87	9131,893
900,05	9170,804
900,22	9236,339
900,40	9265,011
900,57	9285,490
900,75	9324,402
900,92	9326,450
901,10	9201,524
901,27	9477,999
901,45	9379,697
901,62	9416,560
901,80	9215,859
901,97	9232,243
902,15	9381,745
902,32	9461,616
902,50	9422,704
902,67	9512,815
902,85	9455,472
903,02	9760,619
903,20	9586,542
903,37	9426,800
903,54	9836,394
903,72	9824,106
903,89	9625,453
904,07	9756,523
904,24	9453,424
904,42	9678,700
904,59	9695,084
904,77	9688,940
904,94	9662,317
905,12	9740,139
905,29	9852,778
905,47	9758,571
905,64	9936,744
905,81	9895,785
905,99	9879,401
906,16	9940,840
906,34	9930,600
906,51	9942,888
906,69	10071,910
906,86	9932,648
907,03	10194,788
907,21	10057,575
907,38	10190,692
907,56	10463,072
907,73	10207,076
907,91	10129,253
908,08	10403,681
908,25	10389,345
908,43	10225,508
908,60	10258,275
908,78	10186,597
908,95	10399,585
909,13	10579,807
909,30	10395,489
909,47	10571,615
909,65	10587,998
909,82	10454,880
910,00	10604,382
910,17	10778,460
910,34	10966,873
910,52	10725,212
910,69	10921,817
910,87	10647,390
911,04	10903,386
911,21	10866,522
911,39	11007,832
911,56	10913,625
911,73	10936,153
911,91	10944,345
912,08	11087,703
912,26	11106,135
912,43	11239,252
912,60	11153,238
912,78	11231,061
912,95	11310,931
913,13	11519,824
913,30	11444,049
913,47	11562,832
913,65	11509,584
913,82	11628,367
913,99	11427,666
914,17	11673,422
914,34	11714,381
914,51	11636,558
914,69	11706,189
914,86	11763,532
915,03	11800,396
915,21	11736,909
915,38	11810,636
915,56	11714,381
915,73	11741,005
915,90	11872,075
916,08	12138,311
916,25	11988,809
916,42	11728,717
916,60	11956,042
916,77	11902,794
916,94	12009,289
917,12	11949,898
917,29	12072,776
917,46	12066,632
917,64	12347,204
917,81	12218,182
917,98	12414,787
918,16	12359,491
918,33	12310,340
918,50	12547,905
918,67	12382,019
918,85	12523,329
919,02	12476,226
919,19	12609,344
919,37	12386,115
919,54	12353,348
919,71	12635,967
919,89	12656,447
920,06	12750,653
920,23	12705,598
920,41	12887,867
920,58	12914,491
920,75	13014,841
920,92	12934,971
921,10	12943,162
921,27	12810,045
921,44	13152,055
921,62	13285,173
921,79	13188,919
921,96	13092,664
922,13	13205,302
922,31	13119,288
922,48	13334,325
922,65	13160,247
922,82	13244,214
923,00	13279,029
923,17	13293,365
923,34	13344,564
923,52	13543,217
923,69	13528,882
923,86	13463,347
924,03	13426,483
924,21	13346,612
924,38	13561,649
924,55	13612,848
924,72	13711,151
924,90	13678,383
925,07	13512,498
925,24	13797,165
925,41	13831,981
925,59	13735,726
925,76	13758,254
925,93	13756,206
926,10	13932,331
926,28	13883,180
926,45	13989,675
926,62	13905,708
926,79	14159,656
926,96	14290,726
927,14	14196,519
927,31	14374,693
927,48	14341,925
927,65	14264,102
927,83	14393,124
928,00	14440,228
928,17	14675,744
928,34	14472,995
928,51	14677,792
928,69	14520,098
928,86	14487,331
929,03	14855,965
929,20	14581,538
929,37	14694,176
929,55	14522,146
929,72	14714,655
929,89	14550,818
930,06	14776,095
930,23	14976,795
930,41	14776,095
930,58	14925,596
930,75	15163,161
930,92	14712,608
931,09	15007,515
931,27	14833,438
931,44	15009,563
931,61	15095,578
931,78	14778,142
931,95	14837,534
932,12	15374,101
932,30	15068,954
932,47	15021,851
932,64	15572,754
932,81	15019,803
932,98	15009,563
933,16	15296,279
933,33	15169,305
933,50	15238,935
933,67	15167,257
933,84	15095,578
934,01	15257,367
934,18	15370,005
934,36	15322,902
934,53	15214,360
934,70	15210,264
934,87	15189,784
935,04	15025,947
935,21	15140,633
935,38	15163,161
935,56	15357,718
935,73	15388,437
935,90	15370,005
936,07	15210,264
936,24	15187,736
936,41	15417,109
936,58	15361,814
936,76	15308,566
936,93	15324,950
937,10	15263,511
937,27	15335,190
937,44	14890,781
937,61	15103,770
937,78	15349,526
937,95	15130,393
938,13	15042,330
938,30	14919,452
938,47	15185,688
938,64	15228,696
938,81	15105,818
938,98	15044,378
939,15	14976,795
939,32	14968,604
939,49	14964,508
939,66	14987,035
939,84	14894,877
940,01	14751,519
940,18	14837,534
940,35	14843,678
940,52	14726,943
940,69	14970,652
940,86	14634,785
941,03	14475,043
941,20	14692,128
941,37	14425,892
941,54	14389,028
941,71	14706,464
941,89	14559,010
942,06	14462,755
942,23	14196,519
942,40	14536,482
942,57	14055,210
942,74	14255,910
942,91	14100,265
943,08	13975,339
943,25	13909,804
943,42	13963,051
943,59	13940,523
943,76	13655,856
943,93	13831,981
944,10	13524,786
944,27	13635,376
944,44	13580,081
944,61	13422,387
944,79	13424,435
944,96	13332,277
945,13	13215,542
945,30	12969,786
945,47	13045,561
945,64	13016,889
945,81	13004,602
945,98	12668,735
946,15	12750,653
946,32	12697,406
946,49	12375,875
946,66	12418,882
946,83	12304,196
947,00	12142,407
947,17	12066,632
947,34	11861,835
947,51	11894,602
947,68	11650,894
947,85	11515,728
948,02	11450,193
948,19	11222,869
948,36	11099,991
948,53	11290,452
948,70	11091,799
948,87	11036,504
949,04	10610,526
949,21	10569,567
949,38	10520,415
949,55	10569,567
949,72	10344,290
949,89	10211,172
950,06	10065,766
950,23	10059,622
950,40	10026,855
950,57	9881,449
950,74	9799,530
950,91	9463,664
951,08	9422,704
951,25	9236,339
951,42	9148,276
951,59	9213,811
951,76	8933,240
951,93	8761,210
952,10	8804,218
952,27	8587,133
952,44	8263,554
952,61	8343,425
952,77	8306,561
952,94	8097,668
953,11	7915,399
953,28	7747,466
953,45	7608,204
953,62	7565,197
953,79	7409,551
953,96	7397,263
954,13	7284,625
954,30	7202,706
954,47	6819,736
954,64	6936,470
954,81	6963,094
954,98	6739,865
955,15	6633,371
955,32	6526,876
955,49	6449,054
955,65	6213,537
955,82	6195,105
955,99	6129,570
956,16	6168,482
956,33	5998,500
956,50	5812,135
956,67	5900,198
956,84	5693,353
957,01	5615,530
957,18	5480,364
957,35	5291,951
957,52	5435,309
957,68	5269,424
957,85	5185,457
958,02	5099,442
958,19	5097,394
958,36	4980,660
958,53	4890,549
958,70	4808,631
958,87	4648,889
959,04	4517,819
959,21	4648,889
959,37	4526,011
959,54	4487,100
959,71	4356,030
959,88	4272,063
960,05	4206,528
960,22	4069,314
960,39	4059,074
960,56	4011,971
960,72	3837,893
960,89	3944,388
961,06	3786,694
961,23	3807,174
961,40	3786,694
961,57	3815,366
961,74	3588,041
961,90	3590,089
962,07	3522,506
962,24	3373,005
962,41	3545,034
962,58	3303,374
962,75	3213,263
962,92	3284,942
963,08	3295,182
963,25	3123,152
963,42	3168,208
963,59	3096,529
963,76	3004,370
963,93	3133,392
964,10	3022,802
964,26	3112,912
964,43	2908,116
964,60	2820,053
964,77	2826,197
964,94	2662,359
965,10	2652,120
965,27	2598,872
965,44	2627,544
965,61	2533,337
965,78	2670,551
965,95	2721,750
966,11	2508,762
966,28	2439,131
966,45	2537,433
966,62	2469,850
966,79	2502,618
966,95	2443,227
967,12	2387,932
967,29	2316,253
967,46	2412,507
967,63	2351,068
967,79	2291,677
967,96	2312,157
968,13	2099,168
968,30	2289,629
968,47	2168,799
968,63	2213,854
968,80	2093,024
968,97	2129,888
969,14	2217,950
969,31	2039,777
969,47	2045,921
969,64	2119,648
969,81	2021,345
969,98	2121,696
970,14	1986,530
970,31	1961,954
970,48	2004,961
970,65	2033,633
970,81	2088,928
970,98	1988,578
971,15	1931,235
971,32	1920,995
971,48	1996,770
971,65	1916,899
971,82	1857,508
971,99	1855,460
972,15	1822,692
972,32	1929,187
972,49	1990,626
972,66	2027,489
972,82	1906,659
972,99	1857,508
973,16	1890,275
973,33	1861,604
973,49	1839,076
973,66	1687,526
973,83	1877,987
974,00	1691,622
974,16	1753,061
974,33	1847,268
974,50	1775,589
974,67	1748,965
974,83	1769,445
975,00	1753,061
975,17	1746,917
975,33	1757,157
975,50	1769,445
975,67	1720,294
975,84	1683,430
976,00	1765,349
976,17	1710,054
976,34	1697,766
976,50	1767,397
976,67	1664,999
976,84	1634,279
977,00	1679,334
977,17	1626,087
977,34	1738,725
977,50	1636,327
977,67	1740,773
977,84	1728,486
978,01	1619,943
978,17	1675,238
978,34	1671,142
978,51	1679,334
978,67	1624,039
978,84	1662,951
979,01	1775,589
979,17	1556,456
979,34	1574,888
979,51	1630,183
979,67	1650,663
979,84	1759,205
980,01	1701,862
980,17	1662,951
980,34	1560,552
980,51	1615,847
980,67	1624,039
980,84	1656,807
981,01	1662,951
981,17	1632,231
981,34	1703,910
981,50	1611,751
981,67	1515,497
981,84	1691,622
982,00	1673,190
982,17	1505,257
982,34	1544,168
982,50	1621,991
982,67	1630,183
982,84	1675,238
983,00	1490,921
983,17	1560,552
983,33	1587,176
983,50	1675,238
983,67	1593,320
983,83	1478,633
984,00	1564,648
984,17	1675,238
984,33	1632,231
984,50	1617,895
984,66	1613,799
984,83	1658,855
985,00	1478,633
985,16	1691,622
985,33	1509,353
985,49	1570,792
985,66	1568,744
985,83	1589,224
985,99	1597,416
986,16	1564,648
986,32	1521,641
986,49	1482,729
986,66	1517,545
986,82	1570,792
986,99	1538,025
987,15	1484,777
987,32	1554,408
987,49	1558,504
987,65	1542,120
987,82	1589,224
987,98	1564,648
988,15	1585,128
988,31	1609,703
988,48	1560,552
988,65	1552,360
988,81	1507,305
988,98	1564,648
989,14	1513,449
989,31	1583,080
989,47	1615,847
989,64	1652,711
989,80	1521,641
989,97	1601,512
990,14	1683,430
990,30	1556,456
990,47	1581,032
990,63	1550,312
990,80	1464,298
990,96	1585,128
991,13	1648,615
991,29	1593,320
991,46	1581,032
991,62	1587,176
991,79	1521,641
991,95	1593,320
992,12	1621,991
992,29	1581,032
992,45	1470,442
992,62	1560,552
992,78	1515,497
992,95	1540,072
993,11	1521,641
993,28	1664,999
993,44	1441,770
993,61	1497,065
993,77	1515,497
993,94	1568,744
994,10	1568,744
994,27	1601,512
994,43	1492,969
994,60	1511,401
994,76	1531,881
994,93	1523,689
995,09	1556,456
995,26	1642,471
995,42	1535,977
995,59	1589,224
995,75	1560,552
995,92	1611,751
996,08	1601,512
996,25	1560,552
996,41	1554,408
996,58	1621,991
996,74	1566,696
996,91	1548,264
997,07	1525,737
997,23	1529,833
997,40	1607,655
997,56	1574,888
997,73	1677,286
997,89	1558,504
998,06	1427,434
998,22	1626,087
998,39	1505,257
998,55	1443,818
998,72	1535,977
998,88	1492,969
999,05	1519,593
999,21	1531,881
999,37	1574,888
999,54	1556,456
999,70	1480,681
999,87	1505,257
1000,03	1609,703
1000,20	1550,312
1000,36	1634,279
1000,52	1544,168
1000,69	1736,678
1000,85	1513,449
1001,02	1636,327
1001,18	1519,593
1001,35	1488,873
1001,51	1495,017
1001,67	1519,593
1001,84	1572,840
1002,00	1523,689
1002,17	1583,080
1002,33	1505,257
1002,50	1535,977
1002,66	1558,504
1002,82	1523,689
1002,99	1449,962
1003,15	1593,320
1003,32	1542,120
1003,48	1468,394
1003,64	1644,519
1003,81	1568,744
1003,97	1591,272
1004,14	1548,264
1004,30	1378,283
1004,46	1552,360
1004,63	1576,936
1004,79	1404,907
1004,95	1630,183
1005,12	1513,449
1005,28	1644,519
1005,45	1621,991
1005,61	1431,530
1005,77	1597,416
1005,94	1593,320
1006,10	1392,619
1006,26	1646,567
1006,43	1452,010
1006,59	1478,633
1006,76	1538,025
1006,92	1574,888
1007,08	1617,895
1007,25	1419,242
1007,41	1482,729
1007,57	1433,578
1007,74	1533,929
1007,90	1544,168
1008,06	1511,401
1008,23	1501,161
1008,39	1548,264
1008,55	1527,785
1008,72	1482,729
1008,88	1562,600
1009,04	1583,080
1009,21	1566,696
1009,37	1499,113
1009,53	1415,146
1009,70	1441,770
1009,86	1572,840
1010,02	1497,065
1010,19	1421,290
1010,35	1546,216
1010,51	1507,305
1010,68	1535,977
1010,84	1507,305
1011,00	1615,847
1011,17	1468,394
1011,33	1486,825
1011,49	1595,368
1011,66	1552,360
1011,82	1476,585
1011,98	1519,593
1012,14	1529,833
1012,31	1591,272
1012,47	1513,449
1012,63	1544,168
1012,80	1560,552
1012,96	1515,497
1013,12	1607,655
1013,29	1609,703
1013,45	1660,903
1013,61	1521,641
1013,77	1611,751
1013,94	1523,689
1014,10	1449,962
1014,26	1425,386
1014,43	1507,305
1014,59	1515,497
1014,75	1490,921
1014,91	1585,128
1015,08	1591,272
1015,24	1519,593
1015,40	1517,545
1015,56	1572,840
1015,73	1404,907
1015,89	1458,154
1016,05	1490,921
1016,21	1370,091
1016,38	1583,080
1016,54	1597,416
1016,70	1454,058
1016,86	1617,895
1017,03	1529,833
1017,19	1515,497
1017,35	1492,969
1017,51	1521,641
1017,68	1486,825
1017,84	1544,168
1018,00	1468,394
1018,16	1564,648
1018,33	1462,250
1018,49	1511,401
1018,65	1529,833
1018,81	1497,065
1018,97	1562,600
1019,14	1552,360
1019,30	1624,039
1019,46	1574,888
1019,62	1466,346
1019,79	1511,401
1019,95	1601,512
1020,11	1480,681
1020,27	1429,482
1020,43	1449,962
1020,60	1417,194
1020,76	1492,969
1020,92	1515,497
1021,08	1511,401
1021,24	1531,881
1021,41	1495,017
1021,57	1603,560
1021,73	1452,010
1021,89	1492,969
1022,05	1574,888
1022,21	1513,449
1022,38	1413,098
1022,54	1531,881
1022,70	1431,530
1022,86	1454,058
1023,02	1492,969
1023,19	1521,641
1023,35	1552,360
1023,51	1499,113
1023,67	1497,065
1023,83	1535,977
1023,99	1495,017
1024,16	1488,873
1024,32	1482,729
1024,48	1597,416
1024,64	1476,585
1024,80	1472,490
1024,96	1609,703
1025,12	1535,977
1025,29	1486,825
1025,45	1501,161
1025,61	1452,010
1025,77	1443,818
1025,93	1488,873
1026,09	1566,696
1026,26	1511,401
1026,42	1359,851
1026,58	1433,578
1026,74	1429,482
1026,90	1341,420
1027,06	1452,010
1027,22	1511,401
1027,38	1548,264
1027,55	1486,825
1027,71	1521,641
1027,87	1495,017
1028,03	1437,674
1028,19	1437,674
1028,35	1464,298
1028,51	1433,578
1028,67	1474,538
1028,83	1449,962
1029,00	1513,449
1029,16	1495,017
1029,32	1519,593
1029,48	1437,674
1029,64	1413,098
1029,80	1474,538
1029,96	1527,785
1030,12	1517,545
1030,28	1499,113
1030,44	1454,058
1030,61	1574,888
1030,77	1386,475
1030,93	1482,729
1031,09	1404,907
1031,25	1396,715
1031,41	1495,017
1031,57	1347,563
1031,73	1392,619
1031,89	1392,619
1032,05	1331,180
1032,21	1386,475
1032,37	1458,154
1032,53	1441,770
1032,69	1497,065
1032,86	1390,571
1033,02	1425,386
1033,18	1462,250
1033,34	1380,331
1033,50	1505,257
1033,66	1415,146
1033,82	1505,257
1033,98	1507,305
1034,14	1449,962
1034,30	1392,619
1034,46	1499,113
1034,62	1480,681
1034,78	1466,346
1034,94	1499,113
1035,10	1425,386
1035,26	1411,050
1035,42	1429,482
1035,58	1470,442
1035,74	1495,017
1035,90	1460,202
1036,06	1482,729
1036,22	1443,818
1036,38	1472,490
1036,54	1396,715
1036,70	1486,825
1036,86	1482,729
1037,02	1443,818
1037,18	1540,072
1037,34	1513,449
1037,50	1437,674
1037,66	1462,250
1037,82	1441,770
1037,98	1533,929
1038,14	1382,379
1038,30	1415,146
1038,46	1419,242
1038,62	1429,482
1038,78	1466,346
1038,94	1406,955
1039,10	1505,257
1039,26	1349,611
1039,42	1437,674
1039,58	1368,043
1039,74	1449,962
1039,90	1433,578
1040,06	1376,235
>>>>>End Spectral Data<<<<<
