SpectraSuite Data File
++++++++++++++++++++++++++++++++++++
Date: Thu Feb 02 17:07:38 EET 2017
User: optolab
Spectrometer Serial Number: USB4C02475
Spectrometer Channel: 0
Integration Time (usec): 100000
Spectra Averaged: 1
Boxcar Smoothing: 0
Correct for Electrical Dark: No
Strobe/Lamp Enabled: No
Correct for Detector Non-linearity: No
Correct for Stray Light: No
Number of Pixels in Spectrum: 3648
>>>>>Begin Spectral Data<<<<<
344,91	1126,383
345,13	1126,383
345,35	1126,383
345,57	1159,150
345,79	1196,014
346,00	1646,567
346,22	1392,619
346,44	1435,626
346,66	1380,331
346,87	1325,036
347,09	1331,180
347,31	1363,947
347,53	1427,434
347,74	1423,338
347,96	1415,146
348,18	1322,988
348,40	1267,693
348,61	1423,338
348,83	1466,346
349,05	1390,571
349,27	1345,515
349,48	1390,571
349,70	1415,146
349,92	1419,242
350,14	1400,811
350,35	1488,873
350,57	1454,058
350,79	1533,929
351,01	1587,176
351,22	1404,907
351,44	1392,619
351,66	1329,132
351,87	1511,401
352,09	1452,010
352,31	1396,715
352,53	1406,955
352,74	1521,641
352,96	1486,825
353,18	1447,914
353,40	1404,907
353,61	1376,235
353,83	1392,619
354,05	1390,571
354,26	1363,947
354,48	1421,290
354,70	1322,988
354,92	1380,331
355,13	1482,729
355,35	1435,626
355,57	1337,324
355,78	1480,681
356,00	1482,729
356,22	1411,050
356,44	1417,194
356,65	1486,825
356,87	1419,242
357,09	1447,914
357,30	1380,331
357,52	1484,777
357,74	1413,098
357,95	1331,180
358,17	1394,667
358,39	1431,530
358,60	1394,667
358,82	1378,283
359,04	1400,811
359,26	1372,139
359,47	1374,187
359,69	1435,626
359,91	1365,995
360,12	1445,866
360,34	1505,257
360,56	1423,338
360,77	1368,043
360,99	1423,338
361,21	1406,955
361,42	1388,523
361,64	1488,873
361,86	1431,530
362,07	1474,538
362,29	1339,372
362,51	1368,043
362,72	1423,338
362,94	1386,475
363,16	1359,851
363,37	1404,907
363,59	1419,242
363,81	1357,803
364,02	1503,209
364,24	1320,940
364,46	1372,139
364,67	1413,098
364,89	1452,010
365,11	1345,515
365,32	1431,530
365,54	1458,154
365,76	1419,242
365,97	1409,002
366,19	1392,619
366,41	1368,043
366,62	1337,324
366,84	1353,707
367,05	1310,700
367,27	1382,379
367,49	1257,453
367,70	1439,722
367,92	1368,043
368,14	1478,633
368,35	1357,803
368,57	1372,139
368,79	1404,907
369,00	1380,331
369,22	1409,002
369,43	1447,914
369,65	1521,641
369,87	1421,290
370,08	1406,955
370,30	1382,379
370,51	1390,571
370,73	1335,276
370,95	1409,002
371,16	1296,364
371,38	1339,372
371,60	1390,571
371,81	1343,468
372,03	1495,017
372,24	1470,442
372,46	1404,907
372,68	1316,844
372,89	1273,837
373,11	1394,667
373,32	1347,563
373,54	1474,538
373,76	1404,907
373,97	1325,036
374,19	1501,161
374,40	1441,770
374,62	1372,139
374,84	1460,202
375,05	1286,124
375,27	1466,346
375,48	1310,700
375,70	1333,228
375,92	1320,940
376,13	1359,851
376,35	1349,611
376,56	1402,859
376,78	1423,338
376,99	1314,796
377,21	1372,139
377,43	1390,571
377,64	1388,523
377,86	1441,770
378,07	1376,235
378,29	1447,914
378,51	1353,707
378,72	1425,386
378,94	1353,707
379,15	1337,324
379,37	1378,283
379,58	1501,161
379,80	1370,091
380,01	1392,619
380,23	1384,427
380,45	1335,276
380,66	1404,907
380,88	1368,043
381,09	1402,859
381,31	1394,667
381,52	1396,715
381,74	1331,180
381,95	1417,194
382,17	1384,427
382,39	1392,619
382,60	1368,043
382,82	1337,324
383,03	1419,242
383,25	1277,932
383,46	1433,578
383,68	1312,748
383,89	1464,298
384,11	1304,556
384,32	1310,700
384,54	1370,091
384,76	1372,139
384,97	1400,811
385,19	1320,940
385,40	1351,659
385,62	1390,571
385,83	1392,619
386,05	1322,988
386,26	1343,468
386,48	1365,995
386,69	1312,748
386,91	1421,290
387,12	1355,755
387,34	1345,515
387,55	1234,925
387,77	1304,556
387,98	1306,604
388,20	1325,036
388,41	1400,811
388,63	1337,324
388,84	1329,132
389,06	1394,667
389,27	1392,619
389,49	1341,420
389,70	1335,276
389,92	1351,659
390,13	1322,988
390,35	1288,172
390,56	1355,755
390,78	1392,619
390,99	1325,036
391,21	1372,139
391,42	1437,674
391,64	1411,050
391,85	1279,980
392,07	1382,379
392,28	1312,748
392,50	1382,379
392,71	1302,508
392,93	1286,124
393,14	1337,324
393,36	1361,899
393,57	1388,523
393,79	1343,468
394,00	1355,755
394,22	1277,932
394,43	1318,892
394,65	1406,955
394,86	1337,324
395,08	1335,276
395,29	1298,412
395,50	1472,490
395,72	1318,892
395,93	1425,386
396,15	1492,969
396,36	1349,611
396,58	1425,386
396,79	1347,563
397,01	1253,357
397,22	1292,268
397,44	1322,988
397,65	1273,837
397,87	1206,254
398,08	1404,907
398,29	1409,002
398,51	1429,482
398,72	1259,501
398,94	1345,515
399,15	1341,420
399,37	1382,379
399,58	1257,453
399,80	1337,324
400,01	1279,980
400,22	1378,283
400,44	1445,866
400,65	1384,427
400,87	1394,667
401,08	1335,276
401,30	1226,733
401,51	1374,187
401,72	1347,563
401,94	1267,693
402,15	1370,091
402,37	1306,604
402,58	1302,508
402,80	1357,803
403,01	1365,995
403,22	1343,468
403,44	1372,139
403,65	1365,995
403,87	1224,685
404,08	1374,187
404,30	1316,844
404,51	1341,420
404,72	1335,276
404,94	1327,084
405,15	1339,372
405,37	1288,172
405,58	1327,084
405,79	1351,659
406,01	1294,316
406,22	1292,268
406,44	1284,076
406,65	1337,324
406,86	1243,117
407,08	1294,316
407,29	1339,372
407,51	1314,796
407,72	1423,338
407,93	1361,899
408,15	1314,796
408,36	1345,515
408,58	1298,412
408,79	1314,796
409,00	1302,508
409,22	1351,659
409,43	1302,508
409,64	1359,851
409,86	1339,372
410,07	1349,611
410,29	1288,172
410,50	1359,851
410,71	1361,899
410,93	1388,523
411,14	1365,995
411,35	1394,667
411,57	1333,228
411,78	1351,659
412,00	1345,515
412,21	1392,619
412,42	1320,940
412,64	1347,563
412,85	1277,932
413,06	1296,364
413,28	1251,309
413,49	1306,604
413,70	1357,803
413,92	1361,899
414,13	1234,925
414,34	1320,940
414,56	1345,515
414,77	1380,331
414,98	1318,892
415,20	1314,796
415,41	1300,460
415,63	1234,925
415,84	1286,124
416,05	1374,187
416,27	1310,700
416,48	1245,165
416,69	1337,324
416,91	1343,468
417,12	1300,460
417,33	1357,803
417,55	1243,117
417,76	1382,379
417,97	1230,829
418,19	1392,619
418,40	1404,907
418,61	1314,796
418,83	1308,652
419,04	1316,844
419,25	1363,947
419,46	1261,549
419,68	1322,988
419,89	1308,652
420,10	1277,932
420,32	1341,420
420,53	1243,117
420,74	1318,892
420,96	1294,316
421,17	1247,213
421,38	1372,139
421,60	1310,700
421,81	1322,988
422,02	1353,707
422,23	1337,324
422,45	1290,220
422,66	1232,877
422,87	1335,276
423,09	1392,619
423,30	1347,563
423,51	1374,187
423,73	1308,652
423,94	1343,468
424,15	1267,693
424,36	1320,940
424,58	1368,043
424,79	1365,995
425,00	1312,748
425,22	1296,364
425,43	1277,932
425,64	1300,460
425,85	1322,988
426,07	1349,611
426,28	1329,132
426,49	1294,316
426,71	1337,324
426,92	1271,789
427,13	1284,076
427,34	1365,995
427,56	1339,372
427,77	1425,386
427,98	1286,124
428,19	1388,523
428,41	1314,796
428,62	1277,932
428,83	1433,578
429,04	1259,501
429,26	1378,283
429,47	1271,789
429,68	1341,420
429,89	1335,276
430,11	1306,604
430,32	1224,685
430,53	1331,180
430,74	1245,165
430,96	1318,892
431,17	1277,932
431,38	1368,043
431,59	1318,892
431,81	1322,988
432,02	1273,837
432,23	1259,501
432,44	1263,597
432,66	1359,851
432,87	1370,091
433,08	1279,980
433,29	1322,988
433,51	1284,076
433,72	1292,268
433,93	1284,076
434,14	1308,652
434,35	1380,331
434,57	1325,036
434,78	1277,932
434,99	1343,468
435,20	1304,556
435,42	1265,645
435,63	1351,659
435,84	1292,268
436,05	1318,892
436,26	1390,571
436,48	1255,405
436,69	1257,453
436,90	1347,563
437,11	1263,597
437,32	1298,412
437,54	1292,268
437,75	1370,091
437,96	1329,132
438,17	1335,276
438,38	1277,932
438,60	1243,117
438,81	1300,460
439,02	1288,172
439,23	1232,877
439,44	1282,028
439,66	1312,748
439,87	1284,076
440,08	1296,364
440,29	1273,837
440,50	1228,781
440,72	1300,460
440,93	1220,589
441,14	1282,028
441,35	1372,139
441,56	1236,973
441,77	1306,604
441,99	1296,364
442,20	1259,501
442,41	1314,796
442,62	1357,803
442,83	1306,604
443,04	1335,276
443,26	1282,028
443,47	1361,899
443,68	1314,796
443,89	1294,316
444,10	1310,700
444,31	1251,309
444,53	1331,180
444,74	1290,220
444,95	1327,084
445,16	1325,036
445,37	1318,892
445,58	1365,995
445,80	1411,050
446,01	1290,220
446,22	1259,501
446,43	1206,254
446,64	1361,899
446,85	1347,563
447,06	1286,124
447,28	1341,420
447,49	1314,796
447,70	1261,549
447,91	1275,885
448,12	1308,652
448,33	1341,420
448,54	1322,988
448,76	1333,228
448,97	1378,283
449,18	1337,324
449,39	1335,276
449,60	1322,988
449,81	1316,844
450,02	1279,980
450,23	1316,844
450,45	1355,755
450,66	1376,235
450,87	1298,412
451,08	1304,556
451,29	1279,980
451,50	1273,837
451,71	1329,132
451,92	1404,907
452,13	1288,172
452,35	1329,132
452,56	1318,892
452,77	1271,789
452,98	1308,652
453,19	1349,611
453,40	1286,124
453,61	1370,091
453,82	1304,556
454,03	1318,892
454,25	1322,988
454,46	1320,940
454,67	1341,420
454,88	1308,652
455,09	1298,412
455,30	1322,988
455,51	1347,563
455,72	1269,741
455,93	1337,324
456,14	1318,892
456,35	1363,947
456,56	1353,707
456,78	1292,268
456,99	1275,885
457,20	1361,899
457,41	1374,187
457,62	1294,316
457,83	1251,309
458,04	1294,316
458,25	1402,859
458,46	1273,837
458,67	1374,187
458,88	1351,659
459,09	1310,700
459,30	1413,098
459,51	1282,028
459,73	1406,955
459,94	1322,988
460,15	1347,563
460,36	1376,235
460,57	1316,844
460,78	1302,508
460,99	1357,803
461,20	1230,829
461,41	1265,645
461,62	1380,331
461,83	1466,346
462,04	1382,379
462,25	1308,652
462,46	1269,741
462,67	1339,372
462,88	1361,899
463,09	1482,729
463,30	1302,508
463,51	1339,372
463,72	1335,276
463,93	1361,899
464,15	1310,700
464,36	1439,722
464,57	1400,811
464,78	1378,283
464,99	1267,693
465,20	1331,180
465,41	1306,604
465,62	1296,364
465,83	1359,851
466,04	1316,844
466,25	1304,556
466,46	1292,268
466,67	1339,372
466,88	1329,132
467,09	1318,892
467,30	1372,139
467,51	1302,508
467,72	1347,563
467,93	1284,076
468,14	1335,276
468,35	1292,268
468,56	1347,563
468,77	1380,331
468,98	1347,563
469,19	1376,235
469,40	1396,715
469,61	1365,995
469,82	1267,693
470,03	1378,283
470,24	1325,036
470,45	1411,050
470,66	1220,589
470,87	1345,515
471,08	1320,940
471,29	1343,468
471,50	1327,084
471,71	1349,611
471,92	1347,563
472,13	1341,420
472,34	1388,523
472,55	1318,892
472,76	1294,316
472,97	1335,276
473,18	1406,955
473,39	1320,940
473,60	1437,674
473,81	1335,276
474,01	1335,276
474,22	1316,844
474,43	1370,091
474,64	1292,268
474,85	1392,619
475,06	1325,036
475,27	1349,611
475,48	1365,995
475,69	1300,460
475,90	1392,619
476,11	1427,434
476,32	1351,659
476,53	1365,995
476,74	1394,667
476,95	1312,748
477,16	1339,372
477,37	1372,139
477,58	1429,482
477,79	1406,955
478,00	1409,002
478,21	1255,405
478,41	1365,995
478,62	1310,700
478,83	1398,763
479,04	1314,796
479,25	1347,563
479,46	1312,748
479,67	1370,091
479,88	1357,803
480,09	1423,338
480,30	1429,482
480,51	1384,427
480,72	1447,914
480,93	1378,283
481,14	1339,372
481,34	1331,180
481,55	1300,460
481,76	1349,611
481,97	1431,530
482,18	1421,290
482,39	1343,468
482,60	1322,988
482,81	1427,434
483,02	1318,892
483,23	1363,947
483,44	1372,139
483,65	1417,194
483,85	1374,187
484,06	1327,084
484,27	1329,132
484,48	1382,379
484,69	1290,220
484,90	1406,955
485,11	1310,700
485,32	1339,372
485,53	1390,571
485,73	1439,722
485,94	1384,427
486,15	1327,084
486,36	1345,515
486,57	1294,316
486,78	1357,803
486,99	1363,947
487,20	1365,995
487,41	1441,770
487,61	1339,372
487,82	1429,482
488,03	1357,803
488,24	1294,316
488,45	1288,172
488,66	1341,420
488,87	1351,659
489,08	1365,995
489,28	1511,401
489,49	1335,276
489,70	1394,667
489,91	1339,372
490,12	1392,619
490,33	1388,523
490,54	1335,276
490,74	1298,412
490,95	1359,851
491,16	1374,187
491,37	1357,803
491,58	1306,604
491,79	1310,700
492,00	1406,955
492,20	1310,700
492,41	1363,947
492,62	1290,220
492,83	1394,667
493,04	1368,043
493,25	1312,748
493,45	1363,947
493,66	1376,235
493,87	1392,619
494,08	1359,851
494,29	1345,515
494,50	1378,283
494,70	1402,859
494,91	1396,715
495,12	1357,803
495,33	1279,980
495,54	1441,770
495,75	1365,995
495,95	1337,324
496,16	1402,859
496,37	1396,715
496,58	1380,331
496,79	1419,242
496,99	1337,324
497,20	1404,907
497,41	1431,530
497,62	1312,748
497,83	1329,132
498,04	1337,324
498,24	1359,851
498,45	1384,427
498,66	1368,043
498,87	1353,707
499,08	1427,434
499,28	1359,851
499,49	1337,324
499,70	1316,844
499,91	1396,715
500,12	1343,468
500,32	1294,316
500,53	1325,036
500,74	1382,379
500,95	1363,947
501,15	1300,460
501,36	1335,276
501,57	1282,028
501,78	1359,851
501,99	1349,611
502,19	1288,172
502,40	1349,611
502,61	1380,331
502,82	1341,420
503,02	1347,563
503,23	1372,139
503,44	1304,556
503,65	1378,283
503,86	1382,379
504,06	1263,597
504,27	1337,324
504,48	1320,940
504,69	1284,076
504,89	1322,988
505,10	1339,372
505,31	1251,309
505,52	1376,235
505,72	1202,158
505,93	1290,220
506,14	1302,508
506,35	1284,076
506,55	1349,611
506,76	1359,851
506,97	1335,276
507,18	1388,523
507,38	1419,242
507,59	1267,693
507,80	1325,036
508,01	1380,331
508,21	1370,091
508,42	1474,538
508,63	1345,515
508,84	1257,453
509,04	1331,180
509,25	1314,796
509,46	1378,283
509,67	1282,028
509,87	1314,796
510,08	1394,667
510,29	1378,283
510,49	1322,988
510,70	1337,324
510,91	1320,940
511,12	1349,611
511,32	1247,213
511,53	1331,180
511,74	1355,755
511,94	1320,940
512,15	1310,700
512,36	1374,187
512,57	1239,021
512,77	1232,877
512,98	1249,261
513,19	1226,733
513,39	1333,228
513,60	1337,324
513,81	1327,084
514,01	1302,508
514,22	1384,427
514,43	1300,460
514,64	1298,412
514,84	1327,084
515,05	1308,652
515,26	1306,604
515,46	1355,755
515,67	1423,338
515,88	1286,124
516,08	1314,796
516,29	1365,995
516,50	1357,803
516,70	1337,324
516,91	1331,180
517,12	1249,261
517,32	1349,611
517,53	1372,139
517,74	1306,604
517,95	1200,110
518,15	1300,460
518,36	1263,597
518,57	1292,268
518,77	1292,268
518,98	1314,796
519,19	1363,947
519,39	1241,069
519,60	1355,755
519,80	1452,010
520,01	1357,803
520,22	1284,076
520,42	1335,276
520,63	1345,515
520,84	1312,748
521,04	1345,515
521,25	1339,372
521,46	1351,659
521,66	1333,228
521,87	1314,796
522,08	1263,597
522,28	1306,604
522,49	1253,357
522,70	1363,947
522,90	1329,132
523,11	1331,180
523,31	1343,468
523,52	1335,276
523,73	1320,940
523,93	1300,460
524,14	1282,028
524,35	1282,028
524,55	1275,885
524,76	1368,043
524,97	1327,084
525,17	1349,611
525,38	1296,364
525,58	1339,372
525,79	1337,324
526,00	1318,892
526,20	1349,611
526,41	1335,276
526,61	1322,988
526,82	1343,468
527,03	1263,597
527,23	1384,427
527,44	1241,069
527,64	1277,932
527,85	1390,571
528,06	1292,268
528,26	1333,228
528,47	1298,412
528,68	1249,261
528,88	1413,098
529,09	1316,844
529,29	1251,309
529,50	1271,789
529,70	1271,789
529,91	1325,036
530,12	1282,028
530,32	1318,892
530,53	1306,604
530,73	1331,180
530,94	1265,645
531,15	1331,180
531,35	1292,268
531,56	1224,685
531,76	1308,652
531,97	1345,515
532,17	1275,885
532,38	1279,980
532,59	1267,693
532,79	1200,110
533,00	1368,043
533,20	1271,789
533,41	1292,268
533,61	1314,796
533,82	1406,955
534,03	1306,604
534,23	1329,132
534,44	1239,021
534,64	1306,604
534,85	1300,460
535,05	1343,468
535,26	1275,885
535,46	1292,268
535,67	1368,043
535,88	1365,995
536,08	1269,741
536,29	1292,268
536,49	1288,172
536,70	1267,693
536,90	1347,563
537,11	1378,283
537,31	1259,501
537,52	1267,693
537,72	1277,932
537,93	1325,036
538,13	1370,091
538,34	1310,700
538,55	1349,611
538,75	1355,755
538,96	1359,851
539,16	1325,036
539,37	1335,276
539,57	1232,877
539,78	1341,420
539,98	1243,117
540,19	1296,364
540,39	1331,180
540,60	1363,947
540,80	1292,268
541,01	1239,021
541,21	1230,829
541,42	1343,468
541,62	1277,932
541,83	1316,844
542,03	1337,324
542,24	1279,980
542,44	1386,475
542,65	1329,132
542,85	1210,350
543,06	1259,501
543,26	1312,748
543,47	1275,885
543,67	1292,268
543,88	1327,084
544,08	1396,715
544,29	1304,556
544,49	1355,755
544,70	1304,556
544,90	1275,885
545,11	1325,036
545,31	1310,700
545,52	1294,316
545,72	1363,947
545,93	1312,748
546,13	1304,556
546,34	1275,885
546,54	1312,748
546,75	1300,460
546,95	1255,405
547,15	1286,124
547,36	1290,220
547,56	1331,180
547,77	1388,523
547,97	1339,372
548,18	1355,755
548,38	1341,420
548,59	1376,235
548,79	1210,350
549,00	1257,453
549,20	1339,372
549,41	1273,837
549,61	1343,468
549,81	1296,364
550,02	1322,988
550,22	1341,420
550,43	1308,652
550,63	1306,604
550,84	1296,364
551,04	1320,940
551,25	1314,796
551,45	1228,781
551,65	1284,076
551,86	1376,235
552,06	1325,036
552,27	1318,892
552,47	1259,501
552,68	1288,172
552,88	1286,124
553,08	1318,892
553,29	1255,405
553,49	1308,652
553,70	1257,453
553,90	1263,597
554,11	1277,932
554,31	1394,667
554,51	1284,076
554,72	1292,268
554,92	1318,892
555,13	1318,892
555,33	1298,412
555,53	1316,844
555,74	1220,589
555,94	1331,180
556,15	1331,180
556,35	1370,091
556,56	1413,098
556,76	1333,228
556,96	1314,796
557,17	1255,405
557,37	1286,124
557,58	1351,659
557,78	1327,084
557,98	1269,741
558,19	1343,468
558,39	1288,172
558,59	1247,213
558,80	1288,172
559,00	1298,412
559,21	1269,741
559,41	1282,028
559,61	1300,460
559,82	1331,180
560,02	1290,220
560,23	1269,741
560,43	1273,837
560,63	1378,283
560,84	1263,597
561,04	1282,028
561,24	1308,652
561,45	1271,789
561,65	1257,453
561,85	1308,652
562,06	1327,084
562,26	1329,132
562,47	1247,213
562,67	1247,213
562,87	1337,324
563,08	1241,069
563,28	1275,885
563,48	1308,652
563,69	1259,501
563,89	1279,980
564,09	1306,604
564,30	1286,124
564,50	1388,523
564,70	1333,228
564,91	1327,084
565,11	1269,741
565,31	1282,028
565,52	1325,036
565,72	1257,453
565,92	1329,132
566,13	1316,844
566,33	1318,892
566,53	1335,276
566,74	1333,228
566,94	1300,460
567,14	1322,988
567,35	1273,837
567,55	1325,036
567,75	1204,206
567,96	1216,493
568,16	1267,693
568,36	1347,563
568,57	1300,460
568,77	1277,932
568,97	1257,453
569,18	1284,076
569,38	1310,700
569,58	1302,508
569,79	1337,324
569,99	1310,700
570,19	1390,571
570,39	1302,508
570,60	1267,693
570,80	1292,268
571,00	1298,412
571,21	1228,781
571,41	1230,829
571,61	1337,324
571,82	1259,501
572,02	1314,796
572,22	1363,947
572,42	1269,741
572,63	1279,980
572,83	1200,110
573,03	1341,420
573,24	1345,515
573,44	1253,357
573,64	1296,364
573,84	1427,434
574,05	1329,132
574,25	1378,283
574,45	1337,324
574,66	1263,597
574,86	1308,652
575,06	1271,789
575,26	1259,501
575,47	1261,549
575,67	1269,741
575,87	1284,076
576,07	1294,316
576,28	1236,973
576,48	1335,276
576,68	1218,541
576,88	1251,309
577,09	1314,796
577,29	1187,822
577,49	1308,652
577,69	1388,523
577,90	1382,379
578,10	1339,372
578,30	1277,932
578,50	1316,844
578,71	1284,076
578,91	1277,932
579,11	1261,549
579,31	1236,973
579,52	1275,885
579,72	1292,268
579,92	1290,220
580,12	1273,837
580,33	1279,980
580,53	1290,220
580,73	1267,693
580,93	1331,180
581,13	1355,755
581,34	1320,940
581,54	1253,357
581,74	1269,741
581,94	1253,357
582,15	1193,966
582,35	1333,228
582,55	1261,549
582,75	1257,453
582,95	1204,206
583,16	1234,925
583,36	1351,659
583,56	1206,254
583,76	1263,597
583,96	1286,124
584,17	1296,364
584,37	1296,364
584,57	1288,172
584,77	1316,844
584,97	1318,892
585,18	1275,885
585,38	1345,515
585,58	1286,124
585,78	1273,837
585,98	1351,659
586,19	1279,980
586,39	1292,268
586,59	1275,885
586,79	1265,645
586,99	1325,036
587,20	1339,372
587,40	1208,302
587,60	1298,412
587,80	1263,597
588,00	1282,028
588,20	1292,268
588,41	1325,036
588,61	1206,254
588,81	1304,556
589,01	1300,460
589,21	1253,357
589,41	1306,604
589,62	1316,844
589,82	1224,685
590,02	1230,829
590,22	1257,453
590,42	1267,693
590,62	1325,036
590,83	1288,172
591,03	1363,947
591,23	1257,453
591,43	1269,741
591,63	1279,980
591,83	1304,556
592,03	1304,556
592,24	1214,445
592,44	1316,844
592,64	1241,069
592,84	1239,021
593,04	1290,220
593,24	1306,604
593,44	1296,364
593,65	1279,980
593,85	1284,076
594,05	1306,604
594,25	1365,995
594,45	1288,172
594,65	1304,556
594,85	1343,468
595,06	1292,268
595,26	1210,350
595,46	1277,932
595,66	1335,276
595,86	1273,837
596,06	1257,453
596,26	1259,501
596,46	1212,398
596,66	1308,652
596,87	1239,021
597,07	1269,741
597,27	1290,220
597,47	1269,741
597,67	1398,763
597,87	1388,523
598,07	1239,021
598,27	1288,172
598,47	1189,870
598,67	1339,372
598,88	1236,973
599,08	1273,837
599,28	1187,822
599,48	1316,844
599,68	1275,885
599,88	1255,405
600,08	1284,076
600,28	1273,837
600,48	1273,837
600,68	1284,076
600,88	1284,076
601,09	1277,932
601,29	1185,774
601,49	1316,844
601,69	1312,748
601,89	1271,789
602,09	1263,597
602,29	1302,508
602,49	1415,146
602,69	1286,124
602,89	1337,324
603,09	1320,940
603,29	1253,357
603,49	1294,316
603,69	1243,117
603,90	1292,268
604,10	1396,715
604,30	1265,645
604,50	1239,021
604,70	1322,988
604,90	1318,892
605,10	1259,501
605,30	1345,515
605,50	1308,652
605,70	1273,837
605,90	1394,667
606,10	1288,172
606,30	1253,357
606,50	1216,493
606,70	1253,357
606,90	1325,036
607,10	1320,940
607,30	1196,014
607,50	1290,220
607,70	1290,220
607,90	1230,829
608,10	1171,438
608,30	1282,028
608,50	1306,604
608,70	1181,678
608,90	1314,796
609,11	1314,796
609,31	1210,350
609,51	1271,789
609,71	1333,228
609,91	1298,412
610,11	1196,014
610,31	1243,117
610,51	1243,117
610,71	1286,124
610,91	1275,885
611,11	1335,276
611,31	1265,645
611,51	1306,604
611,71	1290,220
611,91	1183,726
612,11	1271,789
612,31	1310,700
612,51	1259,501
612,71	1284,076
612,91	1331,180
613,11	1296,364
613,31	1337,324
613,51	1345,515
613,71	1325,036
613,91	1265,645
614,11	1271,789
614,31	1310,700
614,50	1261,549
614,70	1347,563
614,90	1273,837
615,10	1357,803
615,30	1261,549
615,50	1279,980
615,70	1202,158
615,90	1263,597
616,10	1269,741
616,30	1325,036
616,50	1341,420
616,70	1361,899
616,90	1290,220
617,10	1239,021
617,30	1341,420
617,50	1206,254
617,70	1333,228
617,90	1230,829
618,10	1241,069
618,30	1386,475
618,50	1284,076
618,70	1277,932
618,90	1337,324
619,10	1400,811
619,30	1402,859
619,49	1206,254
619,69	1273,837
619,89	1241,069
620,09	1302,508
620,29	1243,117
620,49	1241,069
620,69	1302,508
620,89	1341,420
621,09	1320,940
621,29	1243,117
621,49	1265,645
621,69	1341,420
621,89	1290,220
622,09	1257,453
622,29	1302,508
622,48	1279,980
622,68	1290,220
622,88	1288,172
623,08	1310,700
623,28	1329,132
623,48	1193,966
623,68	1320,940
623,88	1257,453
624,08	1294,316
624,28	1230,829
624,48	1239,021
624,67	1284,076
624,87	1312,748
625,07	1257,453
625,27	1353,707
625,47	1288,172
625,67	1259,501
625,87	1298,412
626,07	1298,412
626,27	1296,364
626,47	1212,398
626,66	1271,789
626,86	1378,283
627,06	1210,350
627,26	1308,652
627,46	1339,372
627,66	1292,268
627,86	1286,124
628,06	1286,124
628,25	1269,741
628,45	1271,789
628,65	1277,932
628,85	1306,604
629,05	1198,062
629,25	1292,268
629,45	1253,357
629,65	1265,645
629,84	1316,844
630,04	1257,453
630,24	1322,988
630,44	1347,563
630,64	1259,501
630,84	1331,180
631,04	1214,445
631,23	1312,748
631,43	1302,508
631,63	1331,180
631,83	1273,837
632,03	1265,645
632,23	1310,700
632,42	1261,549
632,62	1253,357
632,82	1325,036
633,02	1325,036
633,22	1275,885
633,42	1247,213
633,62	1343,468
633,81	1341,420
634,01	1234,925
634,21	1351,659
634,41	1263,597
634,61	1337,324
634,80	1257,453
635,00	1245,165
635,20	1234,925
635,40	1359,851
635,60	1284,076
635,80	1255,405
635,99	1208,302
636,19	1263,597
636,39	1333,228
636,59	1322,988
636,79	1398,763
636,98	1275,885
637,18	1333,228
637,38	1298,412
637,58	1359,851
637,78	1257,453
637,97	1286,124
638,17	1273,837
638,37	1267,693
638,57	1267,693
638,77	1355,755
638,96	1292,268
639,16	1310,700
639,36	1347,563
639,56	1236,973
639,76	1327,084
639,95	1282,028
640,15	1306,604
640,35	1331,180
640,55	1265,645
640,75	1378,283
640,94	1279,980
641,14	1222,637
641,34	1331,180
641,54	1286,124
641,73	1394,667
641,93	1286,124
642,13	1277,932
642,33	1329,132
642,53	1239,021
642,72	1286,124
642,92	1314,796
643,12	1282,028
643,32	1265,645
643,51	1267,693
643,71	1288,172
643,91	1300,460
644,11	1230,829
644,30	1333,228
644,50	1202,158
644,70	1306,604
644,90	1236,973
645,09	1333,228
645,29	1236,973
645,49	1284,076
645,69	1320,940
645,88	1261,549
646,08	1243,117
646,28	1337,324
646,48	1304,556
646,67	1322,988
646,87	1263,597
647,07	1355,755
647,26	1263,597
647,46	1249,261
647,66	1290,220
647,86	1200,110
648,05	1253,357
648,25	1255,405
648,45	1259,501
648,65	1259,501
648,84	1300,460
649,04	1226,733
649,24	1312,748
649,43	1236,973
649,63	1343,468
649,83	1345,515
650,03	1251,309
650,22	1290,220
650,42	1292,268
650,62	1241,069
650,81	1236,973
651,01	1316,844
651,21	1306,604
651,40	1275,885
651,60	1333,228
651,80	1265,645
652,00	1269,741
652,19	1302,508
652,39	1359,851
652,59	1241,069
652,78	1310,700
652,98	1351,659
653,18	1277,932
653,37	1282,028
653,57	1224,685
653,77	1239,021
653,96	1267,693
654,16	1296,364
654,36	1251,309
654,55	1329,132
654,75	1353,707
654,95	1249,261
655,14	1288,172
655,34	1247,213
655,54	1234,925
655,73	1290,220
655,93	1421,290
656,13	1284,076
656,32	1347,563
656,52	1255,405
656,72	1275,885
656,91	1290,220
657,11	1288,172
657,31	1312,748
657,50	1277,932
657,70	1257,453
657,90	1210,350
658,09	1224,685
658,29	1255,405
658,49	1236,973
658,68	1320,940
658,88	1302,508
659,07	1245,165
659,27	1361,899
659,47	1288,172
659,66	1279,980
659,86	1304,556
660,06	1316,844
660,25	1327,084
660,45	1288,172
660,64	1370,091
660,84	1259,501
661,04	1292,268
661,23	1296,364
661,43	1265,645
661,63	1282,028
661,82	1304,556
662,02	1241,069
662,21	1327,084
662,41	1249,261
662,61	1222,637
662,80	1286,124
663,00	1316,844
663,19	1243,117
663,39	1445,866
663,59	1269,741
663,78	1218,541
663,98	1312,748
664,17	1318,892
664,37	1286,124
664,57	1290,220
664,76	1318,892
664,96	1300,460
665,15	1263,597
665,35	1210,350
665,55	1306,604
665,74	1267,693
665,94	1288,172
666,13	1279,980
666,33	1259,501
666,53	1210,350
666,72	1294,316
666,92	1239,021
667,11	1241,069
667,31	1314,796
667,50	1351,659
667,70	1247,213
667,90	1345,515
668,09	1245,165
668,29	1302,508
668,48	1263,597
668,68	1337,324
668,87	1232,877
669,07	1337,324
669,26	1279,980
669,46	1255,405
669,66	1310,700
669,85	1224,685
670,05	1253,357
670,24	1300,460
670,44	1318,892
670,63	1320,940
670,83	1308,652
671,02	1322,988
671,22	1279,980
671,42	1261,549
671,61	1247,213
671,81	1286,124
672,00	1230,829
672,20	1337,324
672,39	1263,597
672,59	1306,604
672,78	1333,228
672,98	1300,460
673,17	1265,645
673,37	1329,132
673,56	1306,604
673,76	1392,619
673,95	1257,453
674,15	1189,870
674,34	1333,228
674,54	1216,493
674,73	1290,220
674,93	1320,940
675,13	1239,021
675,32	1282,028
675,52	1265,645
675,71	1245,165
675,91	1294,316
676,10	1286,124
676,30	1257,453
676,49	1351,659
676,69	1318,892
676,88	1292,268
677,08	1294,316
677,27	1261,549
677,47	1312,748
677,66	1290,220
677,86	1275,885
678,05	1353,707
678,24	1273,837
678,44	1232,877
678,63	1271,789
678,83	1347,563
679,02	1239,021
679,22	1306,604
679,41	1302,508
679,61	1249,261
679,80	1347,563
680,00	1300,460
680,19	1267,693
680,39	1310,700
680,58	1292,268
680,78	1300,460
680,97	1329,132
681,17	1218,541
681,36	1337,324
681,56	1247,213
681,75	1335,276
681,94	1370,091
682,14	1259,501
682,33	1245,165
682,53	1318,892
682,72	1263,597
682,92	1206,254
683,11	1406,955
683,31	1239,021
683,50	1292,268
683,69	1275,885
683,89	1263,597
684,08	1284,076
684,28	1386,475
684,47	1282,028
684,67	1357,803
684,86	1230,829
685,06	1255,405
685,25	1277,932
685,44	1320,940
685,64	1251,309
685,83	1232,877
686,03	1339,372
686,22	1302,508
686,42	1271,789
686,61	1255,405
686,80	1318,892
687,00	1255,405
687,19	1310,700
687,39	1249,261
687,58	1261,549
687,77	1292,268
687,97	1257,453
688,16	1269,741
688,36	1327,084
688,55	1335,276
688,74	1449,962
688,94	1333,228
689,13	1357,803
689,33	1322,988
689,52	1216,493
689,71	1232,877
689,91	1312,748
690,10	1228,781
690,30	1345,515
690,49	1374,187
690,68	1234,925
690,88	1355,755
691,07	1277,932
691,27	1372,139
691,46	1304,556
691,65	1316,844
691,85	1318,892
692,04	1306,604
692,23	1363,947
692,43	1310,700
692,62	1257,453
692,82	1259,501
693,01	1288,172
693,20	1288,172
693,40	1331,180
693,59	1318,892
693,78	1257,453
693,98	1353,707
694,17	1296,364
694,36	1224,685
694,56	1300,460
694,75	1296,364
694,94	1331,180
695,14	1306,604
695,33	1255,405
695,53	1304,556
695,72	1251,309
695,91	1429,482
696,11	1316,844
696,30	1288,172
696,49	1239,021
696,69	1363,947
696,88	1320,940
697,07	1275,885
697,27	1251,309
697,46	1265,645
697,65	1365,995
697,85	1327,084
698,04	1282,028
698,23	1304,556
698,43	1310,700
698,62	1427,434
698,81	1249,261
699,01	1300,460
699,20	1277,932
699,39	1290,220
699,58	1314,796
699,78	1333,228
699,97	1361,899
700,16	1304,556
700,36	1269,741
700,55	1241,069
700,74	1290,220
700,94	1300,460
701,13	1327,084
701,32	1396,715
701,52	1308,652
701,71	1275,885
701,90	1249,261
702,09	1243,117
702,29	1310,700
702,48	1372,139
702,67	1251,309
702,87	1259,501
703,06	1288,172
703,25	1302,508
703,44	1300,460
703,64	1351,659
703,83	1271,789
704,02	1298,412
704,22	1298,412
704,41	1329,132
704,60	1249,261
704,79	1308,652
704,99	1261,549
705,18	1185,774
705,37	1275,885
705,56	1316,844
705,76	1226,733
705,95	1255,405
706,14	1253,357
706,33	1257,453
706,53	1249,261
706,72	1327,084
706,91	1259,501
707,11	1267,693
707,30	1253,357
707,49	1325,036
707,68	1284,076
707,88	1263,597
708,07	1333,228
708,26	1333,228
708,45	1320,940
708,64	1226,733
708,84	1378,283
709,03	1241,069
709,22	1279,980
709,41	1226,733
709,61	1234,925
709,80	1298,412
709,99	1275,885
710,18	1335,276
710,38	1370,091
710,57	1349,611
710,76	1314,796
710,95	1306,604
711,14	1312,748
711,34	1288,172
711,53	1210,350
711,72	1253,357
711,91	1271,789
712,11	1275,885
712,30	1345,515
712,49	1300,460
712,68	1312,748
712,87	1314,796
713,07	1232,877
713,26	1290,220
713,45	1392,619
713,64	1331,180
713,83	1327,084
714,03	1335,276
714,22	1277,932
714,41	1322,988
714,60	1296,364
714,79	1347,563
714,99	1298,412
715,18	1206,254
715,37	1232,877
715,56	1341,420
715,75	1300,460
715,94	1265,645
716,14	1138,671
716,33	1275,885
716,52	1220,589
716,71	1267,693
716,90	1279,980
717,10	1388,523
717,29	1271,789
717,48	1353,707
717,67	1263,597
717,86	1286,124
718,05	1232,877
718,24	1284,076
718,44	1282,028
718,63	1341,420
718,82	1386,475
719,01	1292,268
719,20	1261,549
719,39	1302,508
719,59	1261,549
719,78	1271,789
719,97	1318,892
720,16	1316,844
720,35	1343,468
720,54	1372,139
720,73	1243,117
720,93	1318,892
721,12	1355,755
721,31	1322,988
721,50	1224,685
721,69	1341,420
721,88	1198,062
722,07	1359,851
722,27	1273,837
722,46	1259,501
722,65	1316,844
722,84	1286,124
723,03	1226,733
723,22	1279,980
723,41	1273,837
723,60	1392,619
723,79	1216,493
723,99	1253,357
724,18	1269,741
724,37	1378,283
724,56	1302,508
724,75	1286,124
724,94	1208,302
725,13	1384,427
725,32	1284,076
725,51	1277,932
725,71	1255,405
725,90	1249,261
726,09	1302,508
726,28	1316,844
726,47	1298,412
726,66	1265,645
726,85	1243,117
727,04	1306,604
727,23	1220,589
727,42	1263,597
727,61	1263,597
727,81	1445,866
728,00	1363,947
728,19	1304,556
728,38	1316,844
728,57	1277,932
728,76	1310,700
728,95	1269,741
729,14	1284,076
729,33	1322,988
729,52	1290,220
729,71	1298,412
729,90	1249,261
730,09	1253,357
730,28	1257,453
730,48	1296,364
730,67	1300,460
730,86	1279,980
731,05	1322,988
731,24	1341,420
731,43	1251,309
731,62	1304,556
731,81	1312,748
732,00	1234,925
732,19	1384,427
732,38	1263,597
732,57	1255,405
732,76	1284,076
732,95	1316,844
733,14	1345,515
733,33	1345,515
733,52	1282,028
733,71	1306,604
733,90	1308,652
734,09	1320,940
734,28	1302,508
734,47	1282,028
734,66	1314,796
734,85	1341,420
735,04	1304,556
735,23	1236,973
735,42	1239,021
735,61	1308,652
735,81	1277,932
736,00	1316,844
736,19	1322,988
736,38	1255,405
736,57	1232,877
736,76	1284,076
736,95	1232,877
737,14	1263,597
737,33	1210,350
737,52	1259,501
737,71	1318,892
737,90	1282,028
738,09	1300,460
738,28	1267,693
738,47	1388,523
738,66	1282,028
738,85	1267,693
739,04	1320,940
739,22	1275,885
739,41	1308,652
739,60	1327,084
739,79	1308,652
739,98	1331,180
740,17	1208,302
740,36	1296,364
740,55	1224,685
740,74	1263,597
740,93	1273,837
741,12	1349,611
741,31	1308,652
741,50	1361,899
741,69	1218,541
741,88	1318,892
742,07	1183,726
742,26	1304,556
742,45	1228,781
742,64	1341,420
742,83	1226,733
743,02	1357,803
743,21	1294,316
743,40	1370,091
743,59	1273,837
743,78	1230,829
743,97	1282,028
744,16	1239,021
744,34	1294,316
744,53	1300,460
744,72	1304,556
744,91	1292,268
745,10	1249,261
745,29	1277,932
745,48	1310,700
745,67	1306,604
745,86	1277,932
746,05	1318,892
746,24	1249,261
746,43	1308,652
746,62	1284,076
746,81	1253,357
747,00	1269,741
747,18	1325,036
747,37	1228,781
747,56	1294,316
747,75	1355,755
747,94	1298,412
748,13	1243,117
748,32	1327,084
748,51	1259,501
748,70	1357,803
748,89	1290,220
749,08	1374,187
749,26	1239,021
749,45	1306,604
749,64	1267,693
749,83	1230,829
750,02	1241,069
750,21	1345,515
750,40	1204,206
750,59	1404,907
750,78	1306,604
750,96	1290,220
751,15	1247,213
751,34	1368,043
751,53	1421,290
751,72	1292,268
751,91	1234,925
752,10	1314,796
752,29	1290,220
752,47	1325,036
752,66	1290,220
752,85	1228,781
753,04	1335,276
753,23	1294,316
753,42	1308,652
753,61	1329,132
753,80	1335,276
753,98	1282,028
754,17	1304,556
754,36	1318,892
754,55	1232,877
754,74	1347,563
754,93	1251,309
755,12	1290,220
755,30	1234,925
755,49	1329,132
755,68	1277,932
755,87	1294,316
756,06	1322,988
756,25	1224,685
756,43	1370,091
756,62	1222,637
756,81	1288,172
757,00	1372,139
757,19	1279,980
757,38	1318,892
757,56	1355,755
757,75	1275,885
757,94	1368,043
758,13	1343,468
758,32	1214,445
758,51	1327,084
758,69	1310,700
758,88	1339,372
759,07	1282,028
759,26	1302,508
759,45	1318,892
759,63	1322,988
759,82	1206,254
760,01	1292,268
760,20	1204,206
760,39	1239,021
760,57	1296,364
760,76	1236,973
760,95	1185,774
761,14	1232,877
761,33	1279,980
761,51	1267,693
761,70	1304,556
761,89	1314,796
762,08	1161,198
762,27	1312,748
762,45	1273,837
762,64	1345,515
762,83	1296,364
763,02	1300,460
763,21	1353,707
763,39	1265,645
763,58	1308,652
763,77	1322,988
763,96	1247,213
764,14	1308,652
764,33	1298,412
764,52	1339,372
764,71	1245,165
764,89	1275,885
765,08	1386,475
765,27	1345,515
765,46	1292,268
765,65	1257,453
765,83	1214,445
766,02	1322,988
766,21	1351,659
766,40	1312,748
766,58	1343,468
766,77	1263,597
766,96	1255,405
767,15	1279,980
767,33	1243,117
767,52	1302,508
767,71	1292,268
767,90	1292,268
768,08	1331,180
768,27	1273,837
768,46	1232,877
768,64	1345,515
768,83	1284,076
769,02	1341,420
769,21	1286,124
769,39	1306,604
769,58	1296,364
769,77	1355,755
769,96	1290,220
770,14	1312,748
770,33	1288,172
770,52	1361,899
770,70	1365,995
770,89	1284,076
771,08	1353,707
771,27	1339,372
771,45	1314,796
771,64	1304,556
771,83	1329,132
772,01	1232,877
772,20	1245,165
772,39	1382,379
772,57	1306,604
772,76	1374,187
772,95	1275,885
773,14	1355,755
773,32	1245,165
773,51	1357,803
773,70	1296,364
773,88	1406,955
774,07	1222,637
774,26	1361,899
774,44	1259,501
774,63	1234,925
774,82	1302,508
775,00	1308,652
775,19	1382,379
775,38	1267,693
775,56	1251,309
775,75	1310,700
775,94	1359,851
776,12	1236,973
776,31	1327,084
776,50	1337,324
776,68	1320,940
776,87	1208,302
777,06	1261,549
777,24	1322,988
777,43	1236,973
777,62	1271,789
777,80	1239,021
777,99	1341,420
778,18	1298,412
778,36	1296,364
778,55	1335,276
778,74	1314,796
778,92	1284,076
779,11	1306,604
779,29	1359,851
779,48	1294,316
779,67	1320,940
779,85	1310,700
780,04	1325,036
780,23	1277,932
780,41	1257,453
780,60	1277,932
780,79	1337,324
780,97	1298,412
781,16	1275,885
781,34	1304,556
781,53	1361,899
781,72	1349,611
781,90	1286,124
782,09	1312,748
782,28	1380,331
782,46	1265,645
782,65	1230,829
782,83	1322,988
783,02	1206,254
783,21	1247,213
783,39	1318,892
783,58	1341,420
783,76	1271,789
783,95	1196,014
784,14	1368,043
784,32	1335,276
784,51	1308,652
784,69	1374,187
784,88	1345,515
785,06	1263,597
785,25	1279,980
785,44	1378,283
785,62	1316,844
785,81	1347,563
785,99	1318,892
786,18	1273,837
786,37	1316,844
786,55	1261,549
786,74	1329,132
786,92	1355,755
787,11	1325,036
787,29	1353,707
787,48	1310,700
787,67	1351,659
787,85	1372,139
788,04	1273,837
788,22	1290,220
788,41	1372,139
788,59	1255,405
788,78	1325,036
788,96	1275,885
789,15	1341,420
789,34	1327,084
789,52	1363,947
789,71	1191,918
789,89	1355,755
790,08	1368,043
790,26	1249,261
790,45	1388,523
790,63	1314,796
790,82	1298,412
791,00	1288,172
791,19	1290,220
791,38	1394,667
791,56	1273,837
791,75	1368,043
791,93	1253,357
792,12	1304,556
792,30	1275,885
792,49	1314,796
792,67	1294,316
792,86	1259,501
793,04	1325,036
793,23	1292,268
793,41	1265,645
793,60	1298,412
793,78	1333,228
793,97	1294,316
794,15	1163,246
794,34	1308,652
794,52	1415,146
794,71	1355,755
794,89	1322,988
795,08	1341,420
795,26	1302,508
795,45	1357,803
795,63	1314,796
795,82	1275,885
796,00	1255,405
796,19	1312,748
796,37	1343,468
796,56	1374,187
796,74	1363,947
796,93	1279,980
797,11	1337,324
797,30	1193,966
797,48	1320,940
797,67	1312,748
797,85	1247,213
798,04	1335,276
798,22	1312,748
798,41	1423,338
798,59	1265,645
798,77	1322,988
798,96	1206,254
799,14	1341,420
799,33	1271,789
799,51	1298,412
799,70	1284,076
799,88	1273,837
800,07	1234,925
800,25	1339,372
800,44	1314,796
800,62	1341,420
800,80	1286,124
800,99	1296,364
801,17	1257,453
801,36	1241,069
801,54	1363,947
801,73	1331,180
801,91	1267,693
802,10	1345,515
802,28	1290,220
802,46	1382,379
802,65	1302,508
802,83	1394,667
803,02	1335,276
803,20	1335,276
803,39	1204,206
803,57	1329,132
803,75	1269,741
803,94	1300,460
804,12	1163,246
804,31	1370,091
804,49	1308,652
804,67	1331,180
804,86	1318,892
805,04	1345,515
805,23	1290,220
805,41	1314,796
805,59	1196,014
805,78	1179,630
805,96	1394,667
806,15	1365,995
806,33	1310,700
806,51	1349,611
806,70	1312,748
806,88	1325,036
807,07	1271,789
807,25	1372,139
807,43	1271,789
807,62	1300,460
807,80	1286,124
807,99	1282,028
808,17	1343,468
808,35	1421,290
808,54	1279,980
808,72	1279,980
808,90	1345,515
809,09	1365,995
809,27	1351,659
809,46	1333,228
809,64	1251,309
809,82	1353,707
810,01	1292,268
810,19	1349,611
810,37	1273,837
810,56	1269,741
810,74	1304,556
810,92	1376,235
811,11	1392,619
811,29	1318,892
811,48	1298,412
811,66	1310,700
811,84	1400,811
812,03	1341,420
812,21	1355,755
812,39	1404,907
812,58	1241,069
812,76	1329,132
812,94	1363,947
813,13	1392,619
813,31	1322,988
813,49	1404,907
813,68	1419,242
813,86	1402,859
814,04	1341,420
814,23	1318,892
814,41	1343,468
814,59	1312,748
814,78	1351,659
814,96	1347,563
815,14	1365,995
815,33	1392,619
815,51	1339,372
815,69	1282,028
815,87	1269,741
816,06	1388,523
816,24	1320,940
816,42	1232,877
816,61	1220,589
816,79	1390,571
816,97	1363,947
817,16	1282,028
817,34	1288,172
817,52	1314,796
817,70	1423,338
817,89	1300,460
818,07	1322,988
818,25	1355,755
818,44	1411,050
818,62	1341,420
818,80	1355,755
818,98	1255,405
819,17	1335,276
819,35	1294,316
819,53	1304,556
819,72	1292,268
819,90	1333,228
820,08	1357,803
820,26	1329,132
820,45	1320,940
820,63	1378,283
820,81	1284,076
820,99	1333,228
821,18	1347,563
821,36	1370,091
821,54	1347,563
821,73	1310,700
821,91	1331,180
822,09	1388,523
822,27	1370,091
822,46	1409,002
822,64	1372,139
822,82	1384,427
823,00	1415,146
823,19	1388,523
823,37	1372,139
823,55	1335,276
823,73	1316,844
823,91	1251,309
824,10	1353,707
824,28	1290,220
824,46	1398,763
824,64	1304,556
824,83	1337,324
825,01	1329,132
825,19	1302,508
825,37	1355,755
825,56	1294,316
825,74	1269,741
825,92	1333,228
826,10	1322,988
826,28	1372,139
826,47	1318,892
826,65	1341,420
826,83	1400,811
827,01	1275,885
827,19	1427,434
827,38	1400,811
827,56	1439,722
827,74	1390,571
827,92	1370,091
828,10	1388,523
828,29	1359,851
828,47	1310,700
828,65	1363,947
828,83	1398,763
829,01	1343,468
829,20	1322,988
829,38	1277,932
829,56	1327,084
829,74	1355,755
829,92	1343,468
830,10	1339,372
830,29	1337,324
830,47	1376,235
830,65	1347,563
830,83	1415,146
831,01	1320,940
831,20	1284,076
831,38	1322,988
831,56	1343,468
831,74	1335,276
831,92	1331,180
832,10	1318,892
832,29	1372,139
832,47	1435,626
832,65	1333,228
832,83	1349,611
833,01	1343,468
833,19	1302,508
833,37	1308,652
833,56	1347,563
833,74	1318,892
833,92	1355,755
834,10	1314,796
834,28	1368,043
834,46	1443,818
834,64	1320,940
834,83	1357,803
835,01	1400,811
835,19	1347,563
835,37	1329,132
835,55	1390,571
835,73	1376,235
835,91	1253,357
836,09	1370,091
836,28	1333,228
836,46	1353,707
836,64	1294,316
836,82	1335,276
837,00	1415,146
837,18	1363,947
837,36	1351,659
837,54	1370,091
837,72	1409,002
837,91	1320,940
838,09	1392,619
838,27	1370,091
838,45	1361,899
838,63	1365,995
838,81	1484,777
838,99	1351,659
839,17	1357,803
839,35	1458,154
839,53	1409,002
839,72	1413,098
839,90	1304,556
840,08	1253,357
840,26	1392,619
840,44	1282,028
840,62	1314,796
840,80	1415,146
840,98	1470,442
841,16	1404,907
841,34	1353,707
841,52	1296,364
841,70	1304,556
841,89	1372,139
842,07	1370,091
842,25	1300,460
842,43	1400,811
842,61	1413,098
842,79	1376,235
842,97	1300,460
843,15	1372,139
843,33	1361,899
843,51	1361,899
843,69	1232,877
843,87	1429,482
844,05	1421,290
844,23	1396,715
844,41	1394,667
844,59	1341,420
844,77	1384,427
844,95	1265,645
845,13	1329,132
845,31	1339,372
845,50	1359,851
845,68	1402,859
845,86	1355,755
846,04	1325,036
846,22	1390,571
846,40	1253,357
846,58	1284,076
846,76	1296,364
846,94	1351,659
847,12	1263,597
847,30	1357,803
847,48	1415,146
847,66	1351,659
847,84	1378,283
848,02	1341,420
848,20	1443,818
848,38	1427,434
848,56	1402,859
848,74	1269,741
848,92	1345,515
849,10	1423,338
849,28	1368,043
849,46	1382,379
849,64	1288,172
849,82	1447,914
850,00	1355,755
850,18	1306,604
850,36	1361,899
850,54	1402,859
850,72	1365,995
850,90	1345,515
851,08	1277,932
851,26	1409,002
851,44	1394,667
851,62	1320,940
851,80	1331,180
851,98	1419,242
852,16	1445,866
852,34	1361,899
852,52	1386,475
852,70	1445,866
852,87	1312,748
853,05	1384,427
853,23	1312,748
853,41	1400,811
853,59	1484,777
853,77	1392,619
853,95	1351,659
854,13	1357,803
854,31	1351,659
854,49	1380,331
854,67	1380,331
854,85	1331,180
855,03	1320,940
855,21	1353,707
855,39	1433,578
855,57	1327,084
855,75	1290,220
855,93	1378,283
856,11	1304,556
856,28	1337,324
856,46	1245,165
856,64	1363,947
856,82	1308,652
857,00	1370,091
857,18	1337,324
857,36	1390,571
857,54	1286,124
857,72	1353,707
857,90	1298,412
858,08	1404,907
858,26	1415,146
858,44	1402,859
858,61	1386,475
858,79	1298,412
858,97	1351,659
859,15	1351,659
859,33	1304,556
859,51	1359,851
859,69	1390,571
859,87	1357,803
860,05	1421,290
860,23	1292,268
860,40	1355,755
860,58	1353,707
860,76	1370,091
860,94	1331,180
861,12	1337,324
861,30	1376,235
861,48	1267,693
861,66	1335,276
861,84	1368,043
862,01	1392,619
862,19	1359,851
862,37	1345,515
862,55	1306,604
862,73	1409,002
862,91	1353,707
863,09	1353,707
863,27	1357,803
863,44	1386,475
863,62	1355,755
863,80	1441,770
863,98	1359,851
864,16	1439,722
864,34	1308,652
864,52	1372,139
864,69	1382,379
864,87	1421,290
865,05	1302,508
865,23	1339,372
865,41	1312,748
865,59	1349,611
865,76	1368,043
865,94	1351,659
866,12	1234,925
866,30	1429,482
866,48	1286,124
866,66	1361,899
866,83	1267,693
867,01	1363,947
867,19	1347,563
867,37	1449,962
867,55	1355,755
867,73	1368,043
867,90	1298,412
868,08	1507,305
868,26	1288,172
868,44	1320,940
868,62	1380,331
868,79	1380,331
868,97	1384,427
869,15	1357,803
869,33	1304,556
869,51	1404,907
869,69	1312,748
869,86	1325,036
870,04	1325,036
870,22	1257,453
870,40	1353,707
870,57	1308,652
870,75	1310,700
870,93	1316,844
871,11	1335,276
871,29	1273,837
871,46	1339,372
871,64	1265,645
871,82	1312,748
872,00	1349,611
872,18	1413,098
872,35	1343,468
872,53	1392,619
872,71	1277,932
872,89	1325,036
873,06	1318,892
873,24	1263,597
873,42	1368,043
873,60	1415,146
873,77	1452,010
873,95	1365,995
874,13	1466,346
874,31	1355,755
874,49	1325,036
874,66	1343,468
874,84	1300,460
875,02	1316,844
875,20	1335,276
875,37	1282,028
875,55	1325,036
875,73	1327,084
875,91	1415,146
876,08	1333,228
876,26	1413,098
876,44	1304,556
876,61	1298,412
876,79	1421,290
876,97	1394,667
877,15	1392,619
877,32	1322,988
877,50	1368,043
877,68	1419,242
877,86	1343,468
878,03	1380,331
878,21	1335,276
878,39	1255,405
878,56	1388,523
878,74	1284,076
878,92	1384,427
879,10	1355,755
879,27	1275,885
879,45	1376,235
879,63	1335,276
879,80	1292,268
879,98	1347,563
880,16	1335,276
880,34	1284,076
880,51	1454,058
880,69	1402,859
880,87	1396,715
881,04	1398,763
881,22	1335,276
881,40	1327,084
881,57	1335,276
881,75	1382,379
881,93	1351,659
882,10	1415,146
882,28	1370,091
882,46	1302,508
882,63	1413,098
882,81	1245,165
882,99	1273,837
883,16	1316,844
883,34	1447,914
883,52	1343,468
883,69	1284,076
883,87	1417,194
884,05	1355,755
884,22	1427,434
884,40	1282,028
884,58	1357,803
884,75	1355,755
884,93	1378,283
885,11	1322,988
885,28	1316,844
885,46	1449,962
885,64	1341,420
885,81	1355,755
885,99	1384,427
886,17	1347,563
886,34	1353,707
886,52	1470,442
886,70	1277,932
886,87	1388,523
887,05	1325,036
887,22	1400,811
887,40	1409,002
887,58	1294,316
887,75	1335,276
887,93	1384,427
888,11	1279,980
888,28	1329,132
888,46	1239,021
888,63	1351,659
888,81	1308,652
888,99	1306,604
889,16	1273,837
889,34	1384,427
889,51	1378,283
889,69	1429,482
889,87	1228,781
890,04	1314,796
890,22	1288,172
890,39	1265,645
890,57	1347,563
890,75	1398,763
890,92	1390,571
891,10	1400,811
891,27	1353,707
891,45	1343,468
891,63	1275,885
891,80	1329,132
891,98	1413,098
892,15	1292,268
892,33	1357,803
892,51	1308,652
892,68	1292,268
892,86	1384,427
893,03	1437,674
893,21	1345,515
893,38	1415,146
893,56	1374,187
893,74	1345,515
893,91	1273,837
894,09	1292,268
894,26	1370,091
894,44	1312,748
894,61	1347,563
894,79	1290,220
894,96	1394,667
895,14	1331,180
895,32	1357,803
895,49	1298,412
895,67	1296,364
895,84	1339,372
896,02	1445,866
896,19	1390,571
896,37	1347,563
896,54	1370,091
896,72	1400,811
896,89	1351,659
897,07	1378,283
897,25	1398,763
897,42	1359,851
897,60	1316,844
897,77	1327,084
897,95	1329,132
898,12	1304,556
898,30	1363,947
898,47	1343,468
898,65	1333,228
898,82	1322,988
899,00	1454,058
899,17	1355,755
899,35	1452,010
899,52	1275,885
899,70	1341,420
899,87	1411,050
900,05	1355,755
900,22	1333,228
900,40	1394,667
900,57	1388,523
900,75	1433,578
900,92	1355,755
901,10	1296,364
901,27	1411,050
901,45	1269,741
901,62	1363,947
901,80	1343,468
901,97	1316,844
902,15	1314,796
902,32	1335,276
902,50	1384,427
902,67	1206,254
902,85	1402,859
903,02	1361,899
903,20	1325,036
903,37	1355,755
903,54	1415,146
903,72	1325,036
903,89	1337,324
904,07	1372,139
904,24	1302,508
904,42	1331,180
904,59	1382,379
904,77	1353,707
904,94	1335,276
905,12	1411,050
905,29	1388,523
905,47	1380,331
905,64	1320,940
905,81	1345,515
905,99	1365,995
906,16	1480,681
906,34	1359,851
906,51	1341,420
906,69	1253,357
906,86	1347,563
907,03	1335,276
907,21	1333,228
907,38	1361,899
907,56	1339,372
907,73	1368,043
907,91	1392,619
908,08	1361,899
908,25	1298,412
908,43	1470,442
908,60	1464,298
908,78	1419,242
908,95	1374,187
909,13	1282,028
909,30	1316,844
909,47	1425,386
909,65	1396,715
909,82	1394,667
910,00	1351,659
910,17	1392,619
910,34	1406,955
910,52	1329,132
910,69	1368,043
910,87	1300,460
911,04	1320,940
911,21	1331,180
911,39	1437,674
911,56	1357,803
911,73	1382,379
911,91	1333,228
912,08	1365,995
912,26	1431,530
912,43	1376,235
912,60	1376,235
912,78	1314,796
912,95	1413,098
913,13	1394,667
913,30	1333,228
913,47	1357,803
913,65	1308,652
913,82	1343,468
913,99	1365,995
914,17	1396,715
914,34	1454,058
914,51	1337,324
914,69	1368,043
914,86	1329,132
915,03	1392,619
915,21	1368,043
915,38	1333,228
915,56	1415,146
915,73	1380,331
915,90	1314,796
916,08	1290,220
916,25	1472,490
916,42	1298,412
916,60	1339,372
916,77	1329,132
916,94	1363,947
917,12	1347,563
917,29	1365,995
917,46	1320,940
917,64	1361,899
917,81	1402,859
917,98	1368,043
918,16	1376,235
918,33	1363,947
918,50	1376,235
918,67	1347,563
918,85	1415,146
919,02	1349,611
919,19	1419,242
919,37	1449,962
919,54	1245,165
919,71	1286,124
919,89	1359,851
920,06	1386,475
920,23	1417,194
920,41	1351,659
920,58	1337,324
920,75	1308,652
920,92	1339,372
921,10	1331,180
921,27	1327,084
921,44	1372,139
921,62	1277,932
921,79	1462,250
921,96	1390,571
922,13	1406,955
922,31	1382,379
922,48	1392,619
922,65	1335,276
922,82	1384,427
923,00	1400,811
923,17	1411,050
923,34	1386,475
923,52	1404,907
923,69	1378,283
923,86	1349,611
924,03	1345,515
924,21	1294,316
924,38	1345,515
924,55	1312,748
924,72	1409,002
924,90	1386,475
925,07	1452,010
925,24	1406,955
925,41	1368,043
925,59	1431,530
925,76	1355,755
925,93	1345,515
926,10	1388,523
926,28	1376,235
926,45	1507,305
926,62	1337,324
926,79	1421,290
926,96	1282,028
927,14	1310,700
927,31	1284,076
927,48	1339,372
927,65	1394,667
927,83	1388,523
928,00	1351,659
928,17	1286,124
928,34	1290,220
928,51	1394,667
928,69	1361,899
928,86	1388,523
929,03	1445,866
929,20	1386,475
929,37	1398,763
929,55	1351,659
929,72	1382,379
929,89	1355,755
930,06	1335,276
930,23	1341,420
930,41	1441,770
930,58	1386,475
930,75	1466,346
930,92	1302,508
931,09	1314,796
931,27	1390,571
931,44	1355,755
931,61	1341,420
931,78	1269,741
931,95	1312,748
932,12	1257,453
932,30	1322,988
932,47	1447,914
932,64	1413,098
932,81	1376,235
932,98	1333,228
933,16	1380,331
933,33	1382,379
933,50	1341,420
933,67	1351,659
933,84	1208,302
934,01	1316,844
934,18	1355,755
934,36	1341,420
934,53	1316,844
934,70	1417,194
934,87	1341,420
935,04	1269,741
935,21	1308,652
935,38	1310,700
935,56	1347,563
935,73	1382,379
935,90	1273,837
936,07	1314,796
936,24	1298,412
936,41	1359,851
936,58	1376,235
936,76	1365,995
936,93	1355,755
937,10	1234,925
937,27	1320,940
937,44	1263,597
937,61	1302,508
937,78	1335,276
937,95	1308,652
938,13	1345,515
938,30	1284,076
938,47	1392,619
938,64	1322,988
938,81	1343,468
938,98	1376,235
939,15	1308,652
939,32	1339,372
939,49	1400,811
939,66	1341,420
939,84	1359,851
940,01	1320,940
940,18	1372,139
940,35	1382,379
940,52	1314,796
940,69	1449,962
940,86	1308,652
941,03	1318,892
941,20	1386,475
941,37	1392,619
941,54	1230,829
941,71	1241,069
941,89	1359,851
942,06	1378,283
942,23	1329,132
942,40	1449,962
942,57	1304,556
942,74	1306,604
942,91	1241,069
943,08	1331,180
943,25	1318,892
943,42	1372,139
943,59	1325,036
943,76	1302,508
943,93	1359,851
944,10	1327,084
944,27	1396,715
944,44	1378,283
944,61	1304,556
944,79	1271,789
944,96	1269,741
945,13	1439,722
945,30	1302,508
945,47	1288,172
945,64	1357,803
945,81	1320,940
945,98	1355,755
946,15	1322,988
946,32	1273,837
946,49	1341,420
946,66	1275,885
946,83	1322,988
947,00	1296,364
947,17	1443,818
947,34	1318,892
947,51	1308,652
947,68	1275,885
947,85	1322,988
948,02	1271,789
948,19	1376,235
948,36	1355,755
948,53	1376,235
948,70	1349,611
948,87	1322,988
949,04	1245,165
949,21	1300,460
949,38	1288,172
949,55	1279,980
949,72	1310,700
949,89	1302,508
950,06	1312,748
950,23	1359,851
950,40	1263,597
950,57	1296,364
950,74	1404,907
950,91	1310,700
951,08	1292,268
951,25	1306,604
951,42	1365,995
951,59	1320,940
951,76	1372,139
951,93	1294,316
952,10	1316,844
952,27	1300,460
952,44	1241,069
952,61	1288,172
952,77	1302,508
952,94	1325,036
953,11	1337,324
953,28	1269,741
953,45	1257,453
953,62	1304,556
953,79	1292,268
953,96	1347,563
954,13	1239,021
954,30	1290,220
954,47	1243,117
954,64	1353,707
954,81	1282,028
954,98	1331,180
955,15	1316,844
955,32	1275,885
955,49	1302,508
955,65	1308,652
955,82	1329,132
955,99	1284,076
956,16	1273,837
956,33	1374,187
956,50	1284,076
956,67	1394,667
956,84	1320,940
957,01	1325,036
957,18	1269,741
957,35	1304,556
957,52	1339,372
957,68	1282,028
957,85	1249,261
958,02	1337,324
958,19	1261,549
958,36	1259,501
958,53	1368,043
958,70	1312,748
958,87	1296,364
959,04	1306,604
959,21	1224,685
959,37	1273,837
959,54	1325,036
959,71	1187,822
959,88	1329,132
960,05	1273,837
960,22	1232,877
960,39	1331,180
960,56	1302,508
960,72	1292,268
960,89	1464,298
961,06	1343,468
961,23	1382,379
961,40	1437,674
961,57	1327,084
961,74	1277,932
961,90	1316,844
962,07	1298,412
962,24	1349,611
962,41	1339,372
962,58	1331,180
962,75	1288,172
962,92	1331,180
963,08	1404,907
963,25	1359,851
963,42	1282,028
963,59	1298,412
963,76	1265,645
963,93	1333,228
964,10	1329,132
964,26	1400,811
964,43	1378,283
964,60	1322,988
964,77	1288,172
964,94	1284,076
965,10	1337,324
965,27	1290,220
965,44	1345,515
965,61	1316,844
965,78	1419,242
965,95	1325,036
966,11	1374,187
966,28	1347,563
966,45	1331,180
966,62	1374,187
966,79	1409,002
966,95	1302,508
967,12	1341,420
967,29	1257,453
967,46	1275,885
967,63	1306,604
967,79	1249,261
967,96	1345,515
968,13	1288,172
968,30	1288,172
968,47	1245,165
968,63	1341,420
968,80	1304,556
968,97	1343,468
969,14	1359,851
969,31	1247,213
969,47	1282,028
969,64	1429,482
969,81	1355,755
969,98	1325,036
970,14	1327,084
970,31	1294,316
970,48	1316,844
970,65	1396,715
970,81	1396,715
970,98	1314,796
971,15	1271,789
971,32	1269,741
971,48	1220,589
971,65	1337,324
971,82	1314,796
971,99	1253,357
972,15	1398,763
972,32	1267,693
972,49	1347,563
972,66	1386,475
972,82	1279,980
972,99	1372,139
973,16	1312,748
973,33	1316,844
973,49	1390,571
973,66	1282,028
973,83	1400,811
974,00	1320,940
974,16	1335,276
974,33	1406,955
974,50	1310,700
974,67	1325,036
974,83	1259,501
975,00	1325,036
975,17	1361,899
975,33	1286,124
975,50	1347,563
975,67	1347,563
975,84	1322,988
976,00	1320,940
976,17	1406,955
976,34	1261,549
976,50	1394,667
976,67	1247,213
976,84	1312,748
977,00	1261,549
977,17	1275,885
977,34	1359,851
977,50	1290,220
977,67	1302,508
977,84	1286,124
978,01	1300,460
978,17	1417,194
978,34	1365,995
978,51	1359,851
978,67	1308,652
978,84	1357,803
979,01	1488,873
979,17	1320,940
979,34	1325,036
979,51	1335,276
979,67	1370,091
979,84	1390,571
980,01	1409,002
980,17	1355,755
980,34	1292,268
980,51	1390,571
980,67	1388,523
980,84	1355,755
981,01	1331,180
981,17	1347,563
981,34	1449,962
981,50	1236,973
981,67	1314,796
981,84	1441,770
982,00	1443,818
982,17	1300,460
982,34	1265,645
982,50	1433,578
982,67	1406,955
982,84	1365,995
983,00	1265,645
983,17	1378,283
983,33	1390,571
983,50	1347,563
983,67	1329,132
983,83	1284,076
984,00	1386,475
984,17	1378,283
984,33	1435,626
984,50	1312,748
984,66	1435,626
984,83	1419,242
985,00	1411,050
985,16	1445,866
985,33	1298,412
985,49	1320,940
985,66	1365,995
985,83	1353,707
985,99	1341,420
986,16	1396,715
986,32	1284,076
986,49	1392,619
986,66	1400,811
986,82	1335,276
986,99	1396,715
987,15	1257,453
987,32	1339,372
987,49	1347,563
987,65	1392,619
987,82	1402,859
987,98	1292,268
988,15	1437,674
988,31	1347,563
988,48	1329,132
988,65	1392,619
988,81	1325,036
988,98	1294,316
989,14	1335,276
989,31	1380,331
989,47	1447,914
989,64	1368,043
989,80	1216,493
989,97	1325,036
990,14	1411,050
990,30	1380,331
990,47	1423,338
990,63	1357,803
990,80	1304,556
990,96	1394,667
991,13	1417,194
991,29	1349,611
991,46	1355,755
991,62	1359,851
991,79	1351,659
991,95	1411,050
992,12	1382,379
992,29	1394,667
992,45	1273,837
992,62	1462,250
992,78	1447,914
992,95	1314,796
993,11	1345,515
993,28	1406,955
993,44	1333,228
993,61	1267,693
993,77	1341,420
993,94	1333,228
994,10	1404,907
994,27	1480,681
994,43	1333,228
994,60	1331,180
994,76	1341,420
994,93	1368,043
995,09	1445,866
995,26	1349,611
995,42	1345,515
995,59	1409,002
995,75	1421,290
995,92	1427,434
996,08	1431,530
996,25	1318,892
996,41	1363,947
996,58	1431,530
996,74	1413,098
996,91	1343,468
997,07	1345,515
997,23	1361,899
997,40	1417,194
997,56	1370,091
997,73	1445,866
997,89	1378,283
998,06	1302,508
998,22	1365,995
998,39	1318,892
998,55	1284,076
998,72	1388,523
998,88	1347,563
999,05	1277,932
999,21	1351,659
999,37	1331,180
999,54	1378,283
999,70	1325,036
999,87	1359,851
1000,03	1333,228
1000,20	1384,427
1000,36	1458,154
1000,52	1417,194
1000,69	1404,907
1000,85	1361,899
1001,02	1439,722
1001,18	1359,851
1001,35	1417,194
1001,51	1368,043
1001,67	1462,250
1001,84	1427,434
1002,00	1353,707
1002,17	1419,242
1002,33	1417,194
1002,50	1335,276
1002,66	1351,659
1002,82	1277,932
1002,99	1349,611
1003,15	1415,146
1003,32	1429,482
1003,48	1337,324
1003,64	1370,091
1003,81	1513,449
1003,97	1312,748
1004,14	1427,434
1004,30	1325,036
1004,46	1368,043
1004,63	1431,530
1004,79	1257,453
1004,95	1429,482
1005,12	1411,050
1005,28	1439,722
1005,45	1411,050
1005,61	1337,324
1005,77	1429,482
1005,94	1322,988
1006,10	1310,700
1006,26	1482,729
1006,43	1284,076
1006,59	1290,220
1006,76	1411,050
1006,92	1404,907
1007,08	1413,098
1007,25	1288,172
1007,41	1390,571
1007,57	1308,652
1007,74	1386,475
1007,90	1443,818
1008,06	1363,947
1008,23	1353,707
1008,39	1372,139
1008,55	1345,515
1008,72	1337,324
1008,88	1404,907
1009,04	1402,859
1009,21	1390,571
1009,37	1239,021
1009,53	1331,180
1009,70	1433,578
1009,86	1347,563
1010,02	1284,076
1010,19	1234,925
1010,35	1359,851
1010,51	1310,700
1010,68	1355,755
1010,84	1347,563
1011,00	1394,667
1011,17	1290,220
1011,33	1329,132
1011,49	1374,187
1011,66	1320,940
1011,82	1341,420
1011,98	1351,659
1012,14	1322,988
1012,31	1345,515
1012,47	1378,283
1012,63	1400,811
1012,80	1388,523
1012,96	1390,571
1013,12	1429,482
1013,29	1355,755
1013,45	1478,633
1013,61	1335,276
1013,77	1435,626
1013,94	1267,693
1014,10	1343,468
1014,26	1376,235
1014,43	1327,084
1014,59	1380,331
1014,75	1331,180
1014,91	1388,523
1015,08	1390,571
1015,24	1331,180
1015,40	1396,715
1015,56	1378,283
1015,73	1220,589
1015,89	1296,364
1016,05	1300,460
1016,21	1224,685
1016,38	1380,331
1016,54	1427,434
1016,70	1267,693
1016,86	1409,002
1017,03	1374,187
1017,19	1333,228
1017,35	1298,412
1017,51	1400,811
1017,68	1302,508
1017,84	1388,523
1018,00	1345,515
1018,16	1329,132
1018,33	1355,755
1018,49	1351,659
1018,65	1353,707
1018,81	1417,194
1018,97	1380,331
1019,14	1382,379
1019,30	1443,818
1019,46	1390,571
1019,62	1316,844
1019,79	1404,907
1019,95	1392,619
1020,11	1394,667
1020,27	1298,412
1020,43	1322,988
1020,60	1339,372
1020,76	1302,508
1020,92	1357,803
1021,08	1398,763
1021,24	1411,050
1021,41	1316,844
1021,57	1400,811
1021,73	1341,420
1021,89	1359,851
1022,05	1359,851
1022,21	1376,235
1022,38	1234,925
1022,54	1370,091
1022,70	1300,460
1022,86	1318,892
1023,02	1365,995
1023,19	1380,331
1023,35	1337,324
1023,51	1257,453
1023,67	1302,508
1023,83	1409,002
1023,99	1263,597
1024,16	1382,379
1024,32	1318,892
1024,48	1302,508
1024,64	1390,571
1024,80	1390,571
1024,96	1386,475
1025,12	1372,139
1025,29	1329,132
1025,45	1322,988
1025,61	1302,508
1025,77	1318,892
1025,93	1388,523
1026,09	1314,796
1026,26	1322,988
1026,42	1306,604
1026,58	1271,789
1026,74	1298,412
1026,90	1200,110
1027,06	1357,803
1027,22	1415,146
1027,38	1325,036
1027,55	1320,940
1027,71	1382,379
1027,87	1304,556
1028,03	1275,885
1028,19	1339,372
1028,35	1308,652
1028,51	1388,523
1028,67	1343,468
1028,83	1257,453
1029,00	1312,748
1029,16	1288,172
1029,32	1337,324
1029,48	1226,733
1029,64	1267,693
1029,80	1247,213
1029,96	1306,604
1030,12	1439,722
1030,28	1325,036
1030,44	1349,611
1030,61	1351,659
1030,77	1302,508
1030,93	1339,372
1031,09	1298,412
1031,25	1263,597
1031,41	1347,563
1031,57	1343,468
1031,73	1300,460
1031,89	1312,748
1032,05	1228,781
1032,21	1251,309
1032,37	1318,892
1032,53	1359,851
1032,69	1349,611
1032,86	1210,350
1033,02	1312,748
1033,18	1251,309
1033,34	1275,885
1033,50	1327,084
1033,66	1368,043
1033,82	1286,124
1033,98	1320,940
1034,14	1284,076
1034,30	1302,508
1034,46	1292,268
1034,62	1261,549
1034,78	1314,796
1034,94	1413,098
1035,10	1304,556
1035,26	1271,789
1035,42	1341,420
1035,58	1337,324
1035,74	1368,043
1035,90	1343,468
1036,06	1193,966
1036,22	1263,597
1036,38	1302,508
1036,54	1259,501
1036,70	1273,837
1036,86	1316,844
1037,02	1331,180
1037,18	1433,578
1037,34	1310,700
1037,50	1273,837
1037,66	1263,597
1037,82	1374,187
1037,98	1359,851
1038,14	1292,268
1038,30	1429,482
1038,46	1261,549
1038,62	1304,556
1038,78	1265,645
1038,94	1300,460
1039,10	1341,420
1039,26	1290,220
1039,42	1318,892
1039,58	1214,445
1039,74	1296,364
1039,90	1347,563
1040,06	1290,220
>>>>>End Spectral Data<<<<<
