SpectraSuite Data File
++++++++++++++++++++++++++++++++++++
Date: Thu Feb 02 18:21:50 EET 2017
User: optolab
Spectrometer Serial Number: USB4C02475
Spectrometer Channel: 0
Integration Time (usec): 151411
Spectra Averaged: 1
Boxcar Smoothing: 0
Correct for Electrical Dark: No
Strobe/Lamp Enabled: No
Correct for Detector Non-linearity: No
Correct for Stray Light: No
Number of Pixels in Spectrum: 3648
>>>>>Begin Spectral Data<<<<<
344,91	1196,014
345,13	1196,014
345,35	1196,014
345,57	1161,198
345,79	1193,966
346,00	2013,153
346,22	1699,814
346,44	1613,799
346,66	1757,157
346,87	1587,176
347,09	1613,799
347,31	1664,999
347,53	1769,445
347,74	1763,301
347,96	1736,678
348,18	1724,390
348,40	1486,825
348,61	1796,069
348,83	1808,356
349,05	1857,508
349,27	1669,095
349,48	1787,877
349,70	1783,781
349,92	1748,965
350,14	1699,814
350,35	1808,356
350,57	1906,659
350,79	1804,260
351,01	1931,235
351,22	1714,150
351,44	1763,301
351,66	1615,847
351,87	1966,050
352,09	1906,659
352,31	1875,939
352,53	1828,836
352,74	1906,659
352,96	1937,378
353,18	1693,670
353,40	1677,286
353,61	1751,013
353,83	1773,541
354,05	1775,589
354,26	1791,973
354,48	1732,582
354,70	1697,766
354,92	1820,644
355,13	1830,884
355,35	1826,788
355,57	1824,740
355,78	1728,486
356,00	1980,386
356,22	1716,198
356,44	1828,836
356,65	1857,508
356,87	1861,604
357,09	1992,674
357,30	1646,567
357,52	1902,563
357,74	1849,316
357,95	1667,047
358,17	1765,349
358,39	1689,574
358,60	1800,165
358,82	1757,157
359,04	1804,260
359,26	1703,910
359,47	1691,622
359,69	1751,013
359,91	1888,227
360,12	1900,515
360,34	1744,869
360,56	1789,925
360,77	1714,150
360,99	1847,268
361,21	1705,958
361,42	1841,124
361,64	1882,083
361,86	1953,762
362,07	2039,777
362,29	1740,773
362,51	1810,404
362,72	1757,157
362,94	1798,117
363,16	1761,253
363,37	1841,124
363,59	1832,932
363,81	1777,637
364,02	2009,057
364,24	1785,829
364,46	1832,932
364,67	1798,117
364,89	1910,755
365,11	1720,294
365,32	1847,268
365,54	1798,117
365,76	1869,795
365,97	1808,356
366,19	1820,644
366,41	1751,013
366,62	1877,987
366,84	1656,807
367,05	1824,740
367,27	1710,054
367,49	1683,430
367,70	1871,843
367,92	1789,925
368,14	1841,124
368,35	1861,604
368,57	1767,397
368,79	1857,508
369,00	1873,891
369,22	1837,028
369,43	1974,242
369,65	1912,803
369,87	1812,452
370,08	1847,268
370,30	1796,069
370,51	1744,869
370,73	1734,630
370,95	1906,659
371,16	1712,102
371,38	1888,227
371,60	1871,843
371,81	1882,083
372,03	1929,187
372,24	1837,028
372,46	1826,788
372,68	1673,190
372,89	1826,788
373,11	1816,548
373,32	1914,851
373,54	1882,083
373,76	1902,563
373,97	1837,028
374,19	1933,282
374,40	1951,714
374,62	1830,884
374,84	2060,257
375,05	1744,869
375,27	2035,681
375,48	1740,773
375,70	1834,980
375,92	1855,460
376,13	1875,939
376,35	1841,124
376,56	1923,043
376,78	1939,426
376,99	1787,877
377,21	1894,371
377,43	1834,980
377,64	1896,419
377,86	1920,995
378,07	1861,604
378,29	1945,570
378,51	1925,091
378,72	1941,474
378,94	1867,748
379,15	1822,692
379,37	1892,323
379,58	1947,618
379,80	1884,131
380,01	1900,515
380,23	1904,611
380,45	1863,652
380,66	2027,489
380,88	1955,810
381,09	1974,242
381,31	2095,072
381,52	1947,618
381,74	1980,386
381,95	1986,530
382,17	2035,681
382,39	1998,818
382,60	2017,249
382,82	1910,755
383,03	1929,187
383,25	1839,076
383,46	2002,913
383,68	1945,570
383,89	2039,777
384,11	1984,482
384,32	1800,165
384,54	1959,906
384,76	1957,858
384,97	1961,954
385,19	1761,253
385,40	2045,921
385,62	2031,585
385,83	2047,969
386,05	1849,316
386,26	1972,194
386,48	1961,954
386,69	1894,371
386,91	2013,153
387,12	1990,626
387,34	2021,345
387,55	1703,910
387,77	1953,762
387,98	1961,954
388,20	2019,297
388,41	2078,688
388,63	2084,832
388,84	1972,194
389,06	2113,504
389,27	2043,873
389,49	2029,537
389,70	2060,257
389,92	1947,618
390,13	1966,050
390,35	1994,722
390,56	2179,039
390,78	2115,552
390,99	2000,865
391,21	2068,448
391,42	2179,039
391,64	1939,426
391,85	1931,235
392,07	1898,467
392,28	1916,899
392,50	2140,127
392,71	1908,707
392,93	2070,496
393,14	2121,696
393,36	2158,559
393,57	2058,209
393,79	2084,832
394,00	2066,400
394,22	1949,666
394,43	2021,345
394,65	2136,031
394,86	2131,935
395,08	1955,810
395,29	1982,434
395,50	2131,935
395,72	2082,784
395,93	2263,005
396,15	2181,087
396,36	1951,714
396,58	2189,279
396,79	2193,375
397,01	2111,456
397,22	2099,168
397,44	2115,552
397,65	2076,640
397,87	1937,378
398,08	2199,518
398,29	2197,470
398,51	2420,699
398,72	2064,352
398,94	2226,142
399,15	2072,544
399,37	2236,382
399,58	2045,921
399,80	2088,928
400,01	2162,655
400,22	2228,190
400,44	2330,588
400,65	2363,356
400,87	2174,943
401,08	2219,998
401,30	2127,840
401,51	2252,766
401,72	2226,142
401,94	2084,832
402,15	2263,005
402,37	2219,998
402,58	2217,950
402,80	2258,910
403,01	2281,437
403,22	2314,205
403,44	2168,799
403,65	2205,662
403,87	2203,614
404,08	2273,245
404,30	2230,238
404,51	2281,437
404,72	2287,581
404,94	2324,445
405,15	2242,526
405,37	2320,349
405,58	2293,725
405,79	2250,718
406,01	2389,980
406,22	2320,349
406,44	2318,301
406,65	2445,275
406,86	2389,980
407,08	2205,662
407,29	2287,581
407,51	2293,725
407,72	2525,145
407,93	2365,404
408,15	2340,828
408,36	2416,603
408,58	2416,603
408,79	2310,109
409,00	2521,050
409,22	2559,961
409,43	2359,260
409,64	2578,393
409,86	2398,171
410,07	2412,507
410,29	2367,452
410,50	2498,522
410,71	2371,548
410,93	2447,323
411,14	2486,234
411,35	2543,577
411,57	2478,042
411,78	2459,610
412,00	2475,994
412,21	2572,249
412,42	2480,090
412,64	2645,976
412,85	2449,371
413,06	2449,371
413,28	2543,577
413,49	2600,920
413,70	2686,935
413,92	2756,566
414,13	2441,179
414,34	2502,618
414,56	2713,559
414,77	2676,695
414,98	2596,824
415,20	2680,791
415,41	2641,880
415,63	2611,160
415,84	2666,455
416,05	2600,920
416,27	2627,544
416,48	2676,695
416,69	2697,175
416,91	2629,592
417,12	2572,249
417,33	2725,846
417,55	2719,702
417,76	2807,765
417,97	2660,311
418,19	2707,415
418,40	2752,470
418,61	2629,592
418,83	2662,359
419,04	2684,887
419,25	2889,684
419,46	2631,640
419,68	2740,182
419,89	2793,429
420,10	2797,525
420,32	2885,588
420,53	2783,190
420,74	2830,293
420,96	2867,156
421,17	2748,374
421,38	2983,890
421,60	2836,437
421,81	2904,020
422,02	2832,341
422,23	3000,274
422,45	2781,142
422,66	2779,094
422,87	3065,809
423,09	2977,747
423,30	2955,219
423,51	3022,802
423,73	2959,315
423,94	3071,953
424,15	2895,828
424,36	3002,322
424,58	3084,241
424,79	3104,721
425,00	3028,946
425,22	3125,200
425,43	3080,145
425,64	2904,020
425,85	2987,986
426,07	3143,632
426,28	3282,894
426,49	3082,193
426,71	3123,152
426,92	3237,839
427,13	3147,728
427,34	3389,388
427,56	3473,355
427,77	3391,436
427,98	3354,573
428,19	3241,935
428,41	3252,174
428,62	3274,702
428,83	3438,540
429,04	3280,846
429,26	3395,532
429,47	3493,835
429,68	3553,226
429,89	3604,425
430,11	3639,240
430,32	3405,772
430,53	3569,610
430,74	3596,233
430,96	3690,440
431,17	3633,097
431,38	3776,454
431,59	3772,358
431,81	3798,982
432,02	3760,071
432,23	3899,332
432,44	3846,085
432,66	4116,417
432,87	3870,661
433,08	4116,417
433,29	3968,963
433,51	3956,676
433,72	4235,199
433,93	3934,148
434,14	4202,432
434,35	4315,070
434,57	4190,144
434,78	4448,188
434,99	4388,797
435,20	4409,277
435,42	4478,908
435,63	4634,553
435,84	4655,033
436,05	4560,826
436,26	4757,431
436,48	4618,170
436,69	4724,664
436,90	4831,158
437,11	4917,173
437,32	5015,475
437,54	5058,483
437,75	5142,450
437,96	5173,169
438,17	5203,889
438,38	5126,066
438,60	5377,966
438,81	5281,711
439,02	5441,453
439,23	5380,014
439,44	5541,803
439,66	5902,246
439,87	5666,730
440,08	5861,287
440,29	5961,637
440,50	5885,862
440,72	6021,028
440,93	6133,666
441,14	6293,408
441,35	6455,198
441,56	6338,463
441,77	6549,404
441,99	6674,330
442,20	6657,946
442,41	6711,194
442,62	6950,806
442,83	6905,751
443,04	7188,370
443,26	7186,322
443,47	7444,366
443,68	7649,163
443,89	7634,828
444,10	7544,717
444,31	7925,639
444,53	7864,200
444,74	8150,916
444,95	7927,687
445,16	8308,609
445,37	8392,576
445,58	8626,044
445,80	8757,114
446,01	8898,424
446,22	9037,686
446,43	9127,797
446,64	9240,435
446,85	9441,136
447,06	9588,590
447,28	9881,449
447,49	9676,652
447,70	9883,497
447,91	10041,191
448,12	9860,970
448,33	10561,375
448,54	10618,718
448,76	10901,338
448,97	11296,596
449,18	11126,614
449,39	11016,024
449,60	11675,470
449,81	11829,068
450,02	12322,628
450,23	12367,683
450,45	12846,908
450,66	12828,476
450,87	13381,428
451,08	13121,336
451,29	13668,143
451,50	13672,239
451,71	14450,468
451,92	14585,633
452,13	14393,124
452,35	14808,862
452,56	15390,485
452,77	15810,319
452,98	16140,042
453,19	16201,481
453,40	16920,318
453,61	16756,480
453,82	17649,395
454,03	18024,173
454,25	18372,328
454,46	18409,191
454,67	18788,065
454,88	19777,234
455,09	20238,027
455,30	19914,448
455,51	20354,761
455,72	21110,462
455,93	21182,141
456,14	22369,963
456,35	22660,774
456,56	22644,390
456,78	23506,585
456,99	23680,663
457,20	24319,629
457,41	25151,104
457,62	25482,875
457,83	25900,661
458,04	26605,162
458,25	27641,434
458,46	28411,470
458,67	29099,588
458,88	29253,186
459,09	30717,483
459,30	30746,155
459,51	31188,516
459,73	31929,881
459,94	32587,279
460,15	33222,149
460,36	33500,673
460,57	35479,011
460,78	35829,213
460,99	36318,678
461,20	37004,747
461,41	36912,589
461,62	38301,112
461,83	39243,177
462,04	39392,679
462,25	40146,331
462,46	40258,970
462,67	42225,020
462,88	42124,669
463,09	43115,886
463,30	43220,332
463,51	45000,017
463,72	44606,807
463,93	44987,730
464,15	45145,423
464,36	46923,060
464,57	47148,337
464,78	47299,886
464,99	47068,466
465,20	48096,546
465,41	48680,217
465,62	48434,461
465,83	49868,039
466,04	48747,800
466,25	49534,220
466,46	50392,319
466,67	50375,935
466,88	51072,245
467,09	50945,271
467,30	52681,948
467,51	52032,742
467,72	53554,383
467,93	50908,407
468,14	51524,846
468,35	53060,822
468,56	52845,786
468,77	53419,217
468,98	53415,121
469,19	53607,630
469,40	53073,110
469,61	53095,638
469,82	53673,165
470,03	52833,498
470,24	52696,284
470,45	54297,795
470,66	52675,804
470,87	53494,992
471,08	53335,250
471,29	53226,708
471,50	52638,941
471,71	52597,981
471,92	52651,229
472,13	52284,642
472,34	52034,790
472,55	52258,019
472,76	50924,791
472,97	51430,639
473,18	51844,329
473,39	51281,138
473,60	51903,720
473,81	51551,469
474,01	50087,172
474,22	50986,230
474,43	50900,215
474,64	50367,743
474,85	48862,486
475,06	49456,397
475,27	49192,209
475,48	48674,073
475,69	48284,959
475,90	48483,612
476,11	47381,805
476,32	47793,447
476,53	47785,255
476,74	47488,299
476,95	47031,602
477,16	47865,126
477,37	47344,942
477,58	47951,140
477,79	47060,274
478,00	47822,118
478,21	47537,451
478,41	47381,805
478,62	48008,483
478,83	47117,617
479,04	47191,344
479,25	46345,533
479,46	47050,034
479,67	46378,300
479,88	46904,628
480,09	47426,860
480,30	47160,624
480,51	46689,592
480,72	46669,112
480,93	46535,994
481,14	47271,215
481,34	47203,632
481,55	46458,171
481,76	46853,429
481,97	47015,219
482,18	47234,351
482,39	47146,289
482,60	46374,204
482,81	47060,274
483,02	47283,502
483,23	47283,502
483,44	47576,362
483,65	47156,528
483,85	47113,521
484,06	46861,621
484,27	48170,273
484,48	46951,732
484,69	47570,218
484,90	47848,742
485,11	47947,044
485,32	47635,753
485,53	47910,181
485,73	48348,446
485,94	48497,948
486,15	48538,907
486,36	47873,318
486,57	48213,280
486,78	47965,476
486,99	48803,095
487,20	48409,885
487,41	48362,782
487,61	49493,261
487,82	49292,560
488,03	48999,700
488,24	49044,756
488,45	49247,505
488,66	49556,748
488,87	49194,257
489,08	49423,630
489,28	49319,183
489,49	50003,205
489,70	49890,567
489,91	50035,972
490,12	50339,072
490,33	49665,290
490,54	49945,862
490,74	49784,072
490,95	49724,681
491,16	49947,910
491,37	50085,124
491,58	49960,198
491,79	49992,965
492,00	49497,357
492,20	49929,478
492,41	50441,470
492,62	50027,781
492,83	50410,751
493,04	49808,648
493,25	49863,943
493,45	49569,036
493,66	50640,123
493,87	50312,448
494,08	50347,264
494,29	49968,390
494,50	50500,861
494,70	50060,548
494,91	50423,039
495,12	50756,858
495,33	50996,470
495,54	51297,521
495,75	51045,621
495,95	51055,861
496,16	50951,415
496,37	51414,255
496,58	51254,514
496,79	51334,385
496,99	51338,481
497,20	51969,255
497,41	51690,731
497,62	51645,676
497,83	51780,842
498,04	51459,311
498,24	51016,950
498,45	51260,658
498,66	51174,643
498,87	51270,898
499,08	51703,019
499,28	50763,001
499,49	51352,816
499,70	51268,850
499,91	51229,938
500,12	51004,662
500,32	51279,090
500,53	50930,935
500,74	51191,027
500,95	50861,304
501,15	51006,710
501,36	50943,223
501,57	50656,507
501,78	51342,577
501,99	50722,042
502,19	50928,887
502,40	50935,031
502,61	51389,680
502,82	51041,525
503,02	51191,027
503,23	50892,023
503,44	50517,245
503,65	50425,087
503,86	50537,725
504,06	50889,975
504,27	50482,430
504,48	50519,293
504,69	51018,998
504,89	50666,747
505,10	50052,356
505,31	50507,005
505,52	50586,876
505,72	50169,090
505,93	49990,917
506,14	49919,238
506,35	50199,810
506,55	50390,271
506,76	49988,869
506,97	50021,637
507,18	50097,412
507,38	50197,762
507,59	49999,109
507,80	49892,615
508,01	49540,364
508,21	49865,991
508,42	50177,282
508,63	49861,895
508,84	50132,227
509,04	49566,988
509,25	50001,157
509,46	50322,688
509,67	50099,460
509,87	49900,807
510,08	49712,393
510,29	49478,925
510,49	50316,544
510,70	49517,836
510,91	49782,024
511,12	49798,408
511,32	49128,722
511,53	49589,515
511,74	49470,733
511,94	49534,220
512,15	50167,042
512,36	49816,840
512,57	49464,589
512,77	49362,191
512,98	49865,991
513,19	49820,936
513,39	49794,312
513,60	49392,910
513,81	49607,947
514,01	49558,796
514,22	49536,268
514,43	49906,950
514,64	49655,050
514,84	48993,556
515,05	49464,589
515,26	49009,940
515,46	48747,800
515,67	48616,730
515,88	48303,391
516,08	48780,568
516,29	48497,948
516,50	48383,262
516,70	48467,228
516,91	48829,719
517,12	47881,509
517,32	48516,380
517,53	48336,158
517,74	48080,162
517,95	47863,078
518,15	48051,491
518,36	48100,642
518,57	47699,240
518,77	47263,023
518,98	47256,879
519,19	47074,610
519,39	47189,296
519,60	47148,337
519,80	47875,365
520,01	47025,458
520,22	46961,971
520,42	47113,521
520,63	47148,337
520,84	46597,433
521,04	46548,282
521,25	46165,312
521,46	46359,869
521,66	45702,471
521,87	46136,640
522,08	45280,589
522,28	45763,910
522,49	45307,213
522,70	45593,928
522,90	45350,220
523,11	45331,788
523,31	45309,261
523,52	45624,648
523,73	44971,346
523,93	44959,058
524,14	44649,815
524,35	44864,851
524,55	44533,080
524,76	44055,904
524,97	44266,845
525,17	43754,852
525,38	43105,646
525,58	42913,137
525,79	43095,406
526,00	42442,104
526,20	42661,237
526,41	42481,016
526,61	42884,466
526,82	42063,230
527,03	41932,160
527,23	42423,673
527,44	42171,772
527,64	41887,105
527,85	41960,832
528,06	41821,570
528,26	41768,323
528,47	41698,692
528,68	41512,327
528,88	41235,851
529,09	41426,312
529,29	41051,534
529,50	40906,128
529,70	41184,652
529,91	40842,641
530,12	40621,460
530,32	40668,563
530,53	40672,659
530,73	40508,822
530,94	41031,054
531,15	40983,951
531,35	41354,633
531,56	40361,368
531,76	40281,497
531,97	40154,523
532,17	39441,830
532,38	39697,826
532,59	39597,476
532,79	39863,712
533,00	39140,779
533,20	39531,941
533,41	39036,332
533,61	39159,210
533,82	39304,616
534,03	38917,550
534,23	39040,428
534,44	38686,130
534,64	38630,835
534,85	38333,879
535,05	38124,986
535,26	37504,452
535,46	37668,289
535,67	37465,540
535,88	37555,651
536,08	37684,673
536,29	37582,275
536,49	37344,710
536,70	37969,341
536,90	37975,485
537,11	38047,163
537,31	37572,035
537,52	37785,023
537,72	37420,485
537,93	37803,455
538,13	37598,658
538,34	37316,039
538,55	36701,648
538,75	37477,828
538,96	37004,747
539,16	37303,751
539,37	37246,408
539,57	37596,610
539,78	37625,282
539,98	37318,087
540,19	37516,740
540,39	37158,345
540,60	37352,902
540,80	37074,378
541,01	36507,091
541,21	36480,467
541,42	37119,434
541,62	36892,109
541,83	36994,508
542,03	36400,597
542,24	36847,054
542,44	36511,187
542,65	36333,014
542,85	36345,301
543,06	36316,630
543,26	36113,881
543,47	36316,630
543,67	36781,519
543,88	36607,441
544,08	36556,242
544,29	36287,958
544,49	36271,575
544,70	36619,729
544,90	36502,995
545,11	36681,168
545,31	35814,878
545,52	36060,634
545,72	35708,383
545,93	35589,601
546,13	35601,889
546,34	36238,807
546,54	36197,848
546,75	36550,098
546,95	36072,922
547,15	35970,523
547,36	36468,180
547,56	36224,471
547,77	36068,826
547,97	35812,830
548,18	35794,398
548,38	35974,619
548,59	35837,405
548,79	36165,080
549,00	35362,276
549,20	35913,180
549,41	35448,291
549,61	35288,550
549,81	35581,409
550,02	35601,889
550,22	36146,648
550,43	35700,191
550,63	35968,475
550,84	35986,907
551,04	35751,390
551,25	36072,922
551,45	36064,730
551,65	35821,021
551,86	36048,346
552,06	35560,929
552,27	35048,937
552,47	34430,451
552,68	35765,726
552,88	35898,844
553,08	36206,040
553,29	35976,667
553,49	36050,394
553,70	35954,139
553,90	36050,394
554,11	35999,195
554,31	35945,948
554,51	35534,306
554,72	35771,870
554,92	35284,454
555,13	35188,199
555,33	35386,852
555,53	35413,476
555,74	35431,907
555,94	36038,106
556,15	35837,405
556,35	35638,752
556,56	36003,291
556,76	36269,527
556,96	36369,877
557,17	36541,906
557,37	36613,585
557,58	36216,279
557,78	36154,840
557,98	36009,435
558,19	36099,545
558,39	35925,468
558,59	35866,077
558,80	36498,899
559,00	35915,228
559,21	35630,560
559,41	36552,146
559,61	36400,597
559,82	36062,682
560,02	36304,342
560,23	35888,604
560,43	36548,050
560,63	36341,205
560,84	36976,076
561,04	37062,090
561,24	37078,474
561,45	37068,234
561,65	36591,058
561,85	36617,681
562,06	36728,272
562,26	36877,773
562,47	36675,024
562,67	36853,198
562,87	36351,445
563,08	36296,150
563,28	36285,910
563,48	36533,715
563,69	36455,892
563,89	36529,619
564,09	36625,873
564,30	37113,290
564,50	36883,917
564,70	37176,777
564,91	36834,766
565,11	37146,057
565,31	36935,116
565,52	37191,112
565,72	37264,839
565,92	37303,751
566,13	37541,315
566,33	37586,370
566,53	37350,854
566,74	37496,260
566,94	37660,097
567,14	37486,020
567,35	37584,322
567,55	38047,163
567,75	37668,289
567,96	37868,990
568,16	37537,219
568,36	37656,001
568,57	37025,227
568,77	37305,799
568,97	37422,533
569,18	37397,957
569,38	37035,467
569,58	37074,378
569,79	37258,695
569,99	37049,803
570,19	37162,441
570,39	37121,482
570,60	36963,788
570,80	37629,378
571,00	37664,193
571,21	37875,134
571,41	37250,504
571,61	37305,799
571,82	37250,504
572,02	36804,046
572,22	37215,688
572,42	37600,706
572,63	38839,727
572,83	38786,480
573,03	38897,070
573,24	39470,502
573,44	38872,495
573,64	38585,779
573,84	38673,842
574,05	38743,473
574,25	38600,115
574,45	38745,521
574,66	38555,060
574,86	38358,455
575,06	38618,547
575,26	38141,370
575,47	38129,082
575,67	38278,584
575,87	37983,676
576,07	38507,956
576,28	38311,351
576,48	38405,558
576,68	39097,771
576,88	39206,314
577,09	39484,838
577,29	39327,144
577,49	38669,746
577,69	38917,550
577,90	38485,429
578,10	39527,845
578,30	39892,383
578,50	40125,852
578,71	39679,395
578,91	39257,513
579,11	39667,107
579,31	39859,616
579,52	40238,490
579,72	39904,671
579,92	40172,955
580,12	39566,756
580,33	39542,181
580,53	39792,033
580,73	39083,436
580,93	39673,251
581,13	40002,974
581,34	40457,623
581,54	40093,084
581,74	40250,778
581,94	39847,328
582,15	40164,763
582,35	40076,700
582,55	40818,065
582,75	41074,061
582,95	40932,751
583,16	41457,031
583,36	41266,570
583,56	41041,294
583,76	41317,770
583,96	41250,187
584,17	40879,504
584,37	41418,120
584,57	41319,818
584,77	41407,880
584,97	41874,817
585,18	41540,998
585,38	41549,190
585,58	41923,968
585,78	42218,876
585,98	42222,972
586,19	42272,123
586,39	42179,964
586,59	42020,223
586,79	42220,924
586,99	42085,758
587,20	41962,880
587,40	42149,245
587,60	42775,923
587,80	43478,377
588,00	44002,657
588,20	44377,435
588,41	44453,210
588,61	44014,944
588,81	44277,084
589,01	43507,048
589,21	43773,284
589,41	43887,970
589,62	43584,871
589,82	43556,199
590,02	44266,845
590,22	44408,154
590,42	45094,224
590,62	44604,759
590,83	44215,645
591,03	45133,135
591,23	44905,811
591,43	45665,607
591,63	45755,718
591,83	46314,813
592,03	46155,072
592,24	46517,562
592,44	46683,448
592,64	47113,521
592,84	47215,920
593,04	46980,403
593,24	47430,956
593,44	47752,487
593,65	47539,499
593,85	48502,044
594,05	48244,000
594,25	48895,254
594,45	48766,232
594,65	48606,490
594,85	48911,638
595,06	48760,088
595,26	48911,638
595,46	48532,763
595,66	48755,992
595,86	48340,254
596,06	48258,336
596,26	48579,867
596,46	48700,697
596,66	49057,043
596,87	48647,450
597,07	48588,059
597,27	49042,708
597,47	48993,556
597,67	49687,818
597,87	49200,401
598,07	48598,298
598,27	48573,723
598,47	48751,896
598,67	48352,542
598,88	48424,221
599,08	47732,008
599,28	46964,019
599,48	47273,263
599,68	46626,105
599,88	46791,990
600,08	46591,289
600,28	46849,333
600,48	46662,968
600,68	45589,832
600,88	45808,965
601,09	45503,818
601,29	45722,950
601,49	45731,142
601,69	45901,124
601,89	45284,685
602,09	44811,604
602,29	44737,877
602,49	44557,656
602,69	44041,568
602,89	43933,026
603,09	44260,701
603,29	44078,431
603,49	44711,254
603,69	44676,438
603,90	44590,424
604,10	45624,648
604,30	45014,353
604,50	45532,489
604,70	45335,884
604,90	44885,331
605,10	44543,320
605,30	44029,280
605,50	43609,447
605,70	43023,728
605,90	43294,059
606,10	42790,259
606,30	42954,097
606,50	42829,170
606,70	43208,045
606,90	43455,849
607,10	43246,956
607,30	43134,318
607,50	43828,579
607,70	44004,705
607,90	43627,878
608,10	43267,436
608,30	43801,956
608,50	44100,959
608,70	44000,609
608,90	44041,568
609,11	44264,797
609,31	43582,823
609,51	43877,730
609,71	43660,646
609,91	43390,314
610,11	44580,184
610,31	44344,667
610,51	44909,907
610,71	44766,549
610,91	44809,556
611,11	44522,841
611,31	43978,081
611,51	43722,085
611,71	43646,310
611,91	44008,800
612,11	43937,122
612,31	44391,771
612,51	43277,676
612,71	42958,192
612,91	42939,761
613,11	43402,602
613,31	43668,838
613,51	43656,550
613,71	44008,800
613,91	44066,144
614,11	43742,565
614,31	44541,272
614,50	43871,587
614,70	44647,767
614,90	43863,395
615,10	44133,727
615,30	44143,966
615,50	43595,111
615,70	44055,904
615,90	43902,306
616,10	44576,088
616,30	44664,150
616,50	44862,803
616,70	44866,899
616,90	44780,885
617,10	44053,856
617,30	44168,542
617,50	44336,475
617,70	44832,084
617,90	44617,047
618,10	44784,981
618,30	45219,150
618,50	45141,327
618,70	44686,678
618,90	44475,737
619,10	45024,593
619,30	44336,475
619,49	44090,719
619,69	44315,996
619,89	44434,778
620,09	44701,014
620,29	44340,571
620,49	44465,498
620,69	43998,561
620,89	44301,660
621,09	44688,726
621,29	44596,568
621,49	44045,664
621,69	45296,973
621,89	44707,158
622,09	44875,091
622,29	44592,472
622,48	44522,841
622,68	44594,520
622,88	44324,188
623,08	44664,150
623,28	44369,243
623,48	43760,996
623,68	43591,015
623,88	44412,250
624,08	43879,778
624,28	43742,565
624,48	44262,749
624,67	44283,228
624,87	44553,560
625,07	44844,372
625,27	44793,172
625,47	44797,268
625,67	44612,951
625,87	44795,220
626,07	45401,419
626,27	44561,752
626,47	44836,180
626,66	44791,125
626,86	45225,294
627,06	44291,420
627,26	44563,800
627,46	44211,549
627,66	43920,738
627,86	44203,358
628,06	44414,298
628,25	45129,039
628,45	45069,648
628,65	45040,977
628,85	44494,169
629,05	44717,398
629,25	44404,058
629,45	44592,472
629,65	44436,826
629,84	44420,442
630,04	44123,487
630,24	44528,985
630,44	44379,483
630,64	44338,523
630,84	44580,184
631,04	44639,575
631,23	45225,294
631,43	45348,172
631,63	44918,099
631,83	45378,892
632,03	45710,662
632,23	45845,828
632,42	45866,308
632,62	45856,068
632,82	45675,847
633,02	45688,135
633,22	45405,515
633,42	45215,054
633,62	45086,032
633,81	45358,412
634,01	45219,150
634,21	45638,984
634,41	44922,195
634,61	45180,239
634,80	44889,427
635,00	45157,711
635,20	44977,490
635,40	45321,548
635,60	45469,002
635,80	45284,685
635,99	45423,947
636,19	45802,821
636,39	45534,537
636,59	45006,161
636,79	46009,666
636,98	45608,264
637,18	46064,961
637,38	46382,396
637,58	46009,666
637,78	46284,094
637,97	45868,356
638,17	45186,382
638,37	45708,615
638,57	45804,869
638,77	45872,452
638,96	45469,002
639,16	45663,559
639,36	45864,260
639,56	45479,242
639,76	45460,810
639,95	45219,150
640,15	44985,682
640,35	44834,132
640,55	44780,885
640,75	45305,165
640,94	45483,338
641,14	45149,519
641,34	45432,139
641,54	45647,175
641,73	45976,898
641,93	45651,271
642,13	45735,238
642,33	45196,622
642,53	45303,117
642,72	45380,940
642,92	45129,039
643,12	45813,061
643,32	45858,116
643,51	46103,872
643,71	46187,839
643,91	46263,614
644,11	45587,784
644,30	45860,164
644,50	45616,456
644,70	45776,198
644,90	46071,105
645,09	45858,116
645,29	45886,788
645,49	45686,087
645,69	45903,172
645,88	45913,411
646,08	45925,699
646,28	46028,098
646,48	45808,965
646,67	45862,212
646,87	45974,850
647,07	46048,577
647,26	45720,902
647,46	45329,740
647,66	45706,567
647,86	45987,138
648,05	45352,268
648,25	45751,622
648,45	45491,530
648,65	44762,453
648,84	44893,523
649,04	44248,413
649,24	44631,383
649,43	44565,848
649,63	45278,541
649,83	45155,663
650,03	45241,678
650,22	45765,958
650,42	45927,747
650,62	45983,042
650,81	45692,231
651,01	45862,212
651,21	46552,378
651,40	46155,072
651,60	46236,990
651,80	45829,445
652,00	45473,098
652,19	45634,888
652,39	45739,334
652,59	45409,611
652,78	45014,353
652,98	45149,519
653,18	44756,309
653,37	45145,423
653,57	45096,272
653,77	45313,357
653,96	45141,327
654,16	45587,784
654,36	45847,876
654,55	45651,271
654,75	45714,758
654,95	45602,120
655,14	45944,131
655,34	45825,349
655,54	45419,851
655,73	45006,161
655,93	45362,508
656,13	45079,888
656,32	45163,855
656,52	45126,991
656,72	45079,888
656,91	45151,567
657,11	45757,766
657,31	45208,910
657,50	45595,976
657,70	45395,275
657,90	45169,999
658,09	45512,010
658,29	45645,128
658,49	45741,382
658,68	46366,012
658,88	46425,404
659,07	46728,503
659,27	46107,968
659,47	45862,212
659,66	45634,888
659,86	45663,559
660,06	45368,652
660,25	45133,135
660,45	45278,541
660,64	45591,880
660,84	45092,176
661,04	45313,357
661,23	45765,958
661,43	45274,445
661,63	45931,843
661,82	45645,128
662,02	45399,371
662,21	45649,223
662,41	45786,437
662,61	46159,168
662,80	46148,928
663,00	46069,057
663,19	46302,525
663,39	46853,429
663,59	46206,271
663,78	46173,503
663,98	45884,740
664,17	46282,046
664,37	45909,315
664,57	45673,799
664,76	46327,101
664,96	46052,673
665,15	46136,640
665,35	45503,818
665,55	45755,718
665,74	45311,309
665,94	45684,039
666,13	45135,183
666,33	45272,397
666,53	45071,696
666,72	44578,136
666,92	45133,135
667,11	44883,283
667,31	44746,069
667,50	44883,283
667,70	45733,190
667,90	46236,990
668,09	45923,651
668,29	46228,799
668,48	46409,020
668,68	47228,207
668,87	47228,207
669,07	46988,595
669,26	47408,429
669,46	47375,661
669,66	47318,318
669,85	46652,728
670,05	46796,086
670,24	46679,352
670,44	46820,662
670,63	46200,127
670,83	46212,415
671,02	46570,809
671,22	46044,481
671,42	46300,478
671,61	45565,257
671,81	46286,142
672,00	45843,780
672,20	46267,710
672,39	46220,607
672,59	46589,241
672,78	46368,060
672,98	46218,559
673,17	46648,632
673,37	45876,548
673,56	46329,149
673,76	46531,898
673,95	46126,400
674,15	46251,326
674,34	46505,274
674,54	46218,559
674,73	46824,758
674,93	46456,123
675,13	46617,913
675,32	46607,673
675,52	47252,783
675,71	46660,920
675,91	46914,868
676,10	46955,828
676,30	45620,552
676,49	45710,662
676,69	45579,592
676,88	45460,810
677,08	45866,308
677,27	45534,537
677,47	45153,615
677,66	45763,910
677,86	45884,740
678,05	45626,696
678,24	45491,530
678,44	45747,526
678,63	46312,765
678,83	45804,869
679,02	45499,722
679,22	45540,681
679,41	46058,817
679,61	45147,471
679,80	45925,699
680,00	45276,493
680,19	45665,607
680,39	45925,699
680,58	45915,459
680,78	45452,618
680,97	45946,179
681,17	45780,293
681,36	45393,227
681,56	45931,843
681,75	45872,452
681,94	46110,016
682,14	45784,389
682,33	45894,980
682,53	46327,101
682,72	46253,374
682,92	46335,293
683,11	45892,932
683,31	45866,308
683,50	45673,799
683,69	45825,349
683,89	45720,902
684,08	45438,283
684,28	45903,172
684,47	46122,304
684,67	46572,857
684,86	46259,518
685,06	46327,101
685,25	46370,108
685,44	46286,142
685,64	46456,123
685,83	45884,740
686,03	46005,570
686,22	46222,655
686,42	46079,297
686,61	46138,688
686,80	45530,441
687,00	45606,216
687,19	45880,644
687,39	45438,283
687,58	45399,371
687,77	45339,980
687,97	45241,678
688,16	44852,564
688,36	45116,752
688,55	45008,209
688,74	45411,659
688,94	45397,323
689,13	45454,666
689,33	45573,449
689,52	45536,585
689,71	45342,028
689,91	46024,002
690,10	45362,508
690,30	45718,854
690,49	45714,758
690,68	45690,183
690,88	45577,545
691,07	45585,736
691,27	46515,514
691,46	46269,758
691,65	46105,920
691,85	46126,400
692,04	45757,766
692,23	45907,268
692,43	45440,331
692,62	45266,253
692,82	45206,862
693,01	45882,692
693,20	45532,489
693,40	46210,367
693,59	45614,408
693,78	45485,386
693,98	46476,603
694,17	45591,880
694,36	46345,533
694,56	46128,448
694,75	45802,821
694,94	45718,854
695,14	45776,198
695,33	45534,537
695,53	45569,353
695,72	45557,065
695,91	45897,028
696,11	45960,515
696,30	46118,208
696,49	46439,739
696,69	46024,002
696,88	46208,319
697,07	45788,485
697,27	45403,467
697,46	44821,844
697,65	44508,505
697,85	44430,682
698,04	44735,829
698,23	44760,405
698,43	45647,175
698,62	45864,260
698,81	45714,758
699,01	46380,348
699,20	46658,872
699,39	46937,396
699,58	46509,370
699,78	47166,768
699,97	47400,237
700,16	46120,256
700,36	46341,437
700,55	46353,725
700,74	46734,647
700,94	46189,887
701,13	46079,297
701,32	45731,142
701,52	45694,279
701,71	44948,818
701,90	44957,010
702,09	44971,346
702,29	45143,375
702,48	45323,596
702,67	45270,349
702,87	45155,663
703,06	45419,851
703,25	45098,320
703,44	44838,228
703,64	44883,283
703,83	44795,220
704,02	45395,275
704,22	45018,449
704,41	44764,501
704,60	44741,973
704,79	45342,028
704,99	45088,080
705,18	44711,254
705,37	44727,638
705,56	44870,995
705,76	44961,106
705,95	44899,667
706,14	45010,257
706,33	45081,936
706,53	44795,220
706,72	45391,179
706,91	45264,205
707,11	45557,065
707,30	45458,762
707,49	45849,924
707,68	45569,353
707,88	45045,073
708,07	45272,397
708,26	45501,770
708,45	44883,283
708,64	45227,342
708,84	45485,386
709,03	44799,316
709,22	44158,302
709,41	43918,690
709,61	43900,258
709,80	44309,852
709,99	44264,797
710,18	44082,527
710,38	44578,136
710,57	44129,631
710,76	43890,018
710,95	43527,528
711,14	44139,870
711,34	43730,277
711,53	43904,354
711,72	44016,992
711,91	44354,907
712,11	44133,727
712,30	44168,542
712,49	44422,490
712,68	44445,018
712,87	44125,535
713,07	44225,885
713,26	43808,100
713,45	43496,808
713,64	43625,830
713,83	43279,724
714,03	43568,487
714,22	43945,313
714,41	43836,771
714,60	43595,111
714,79	44025,184
714,99	43973,985
715,18	43314,539
715,37	43591,015
715,56	43330,923
715,75	43273,580
715,94	42741,108
716,14	43623,782
716,33	43076,975
716,52	43722,085
716,71	43468,137
716,90	43951,457
717,10	43650,406
717,29	43162,989
717,48	42956,145
717,67	42464,632
717,86	43064,687
718,05	42892,658
718,24	43167,085
718,44	42841,458
718,63	43310,443
718,82	42648,949
719,01	43363,690
719,20	43459,945
719,39	43883,874
719,59	44416,346
719,78	43933,026
719,97	43560,295
720,16	43437,417
720,35	42939,761
720,54	42708,340
720,73	43068,783
720,93	42585,462
721,12	43277,676
721,31	42730,868
721,50	43517,288
721,69	42902,897
721,88	43240,812
722,07	43097,454
722,27	42661,237
722,46	42780,019
722,65	42106,238
722,84	42341,754
723,03	42571,126
723,22	42243,451
723,41	41940,352
723,60	42648,949
723,79	42333,562
723,99	42206,588
724,18	42577,270
724,37	42290,555
724,56	42073,470
724,75	41954,688
724,94	41903,489
725,13	41815,426
725,32	42354,042
725,51	42118,525
725,71	42218,876
725,90	42014,079
726,09	42286,459
726,28	42190,204
726,47	42100,094
726,66	41895,297
726,85	42448,248
727,04	42098,046
727,23	42644,853
727,42	42792,307
727,61	42777,971
727,81	42689,909
728,00	42857,842
728,19	43197,805
728,38	42716,532
728,57	42718,580
728,76	43005,296
728,95	42759,540
729,14	42737,012
729,33	42177,916
729,52	42034,559
729,71	41842,050
729,90	41971,072
730,09	42587,510
730,28	42059,134
730,48	41639,301
730,67	41807,234
730,86	41506,183
731,05	41487,751
731,24	41569,670
731,43	41768,323
731,62	41215,371
731,81	41461,127
732,00	41659,780
732,19	41512,327
732,38	41643,397
732,57	41948,544
732,76	41829,762
732,95	42311,034
733,14	42265,979
733,33	42419,577
733,52	41946,496
733,71	42444,152
733,90	42313,082
734,09	42315,130
734,28	41932,160
734,47	41969,024
734,66	42198,396
734,85	42376,569
735,04	41964,928
735,23	41969,024
735,42	41291,146
735,61	41909,632
735,81	41790,850
736,00	41569,670
736,19	42014,079
736,38	42038,655
736,57	42218,876
736,76	42466,680
736,95	41821,570
737,14	42102,142
737,33	41880,961
737,52	42089,854
737,71	41282,954
737,90	41581,958
738,09	41166,220
738,28	41502,087
738,47	41362,825
738,66	40824,209
738,85	41147,788
739,04	40963,471
739,22	40922,512
739,41	40881,552
739,60	41356,681
739,79	40990,095
739,98	41041,294
740,17	41166,220
740,36	41360,777
740,55	41823,618
740,74	41467,271
740,93	41590,149
741,12	41350,537
741,31	40816,017
741,50	40676,755
741,69	40660,372
741,88	40095,132
742,07	40412,567
742,26	40482,198
742,45	40185,243
742,64	40359,320
742,83	40404,375
743,02	40414,615
743,21	40414,615
743,40	40637,844
743,59	40449,431
743,78	40400,280
743,97	40168,859
744,16	40623,508
744,34	40369,560
744,53	40426,903
744,72	40281,497
744,91	40377,752
745,10	40521,110
745,29	40408,471
745,48	40357,272
745,67	40338,840
745,86	39978,398
746,05	39968,158
746,24	39910,815
746,43	39601,572
746,62	39769,505
746,81	39310,760
747,00	39572,900
747,18	39210,410
747,37	39265,705
747,56	39062,956
747,75	38991,277
747,94	39325,096
748,13	39746,978
748,32	39435,686
748,51	39773,601
748,70	39959,966
748,89	39658,915
749,08	40250,778
749,26	39470,502
749,45	40060,317
749,64	39646,627
749,83	40039,837
750,02	39644,579
750,21	39153,067
750,40	39548,325
750,59	39005,613
750,78	38505,908
750,96	38446,517
751,15	38485,429
751,34	38960,558
751,53	38895,022
751,72	38852,015
751,91	39042,476
752,10	38589,875
752,29	38722,993
752,47	38698,418
752,66	38452,661
752,85	38153,658
753,04	37582,275
753,23	37817,791
753,42	38155,706
753,61	38202,809
753,80	38069,691
753,98	38669,746
754,17	38677,938
754,36	38432,182
754,55	38602,163
754,74	38436,278
754,93	37729,728
755,12	38178,233
755,30	38264,248
755,49	38395,318
755,68	38540,724
755,87	38489,525
756,06	38518,196
756,25	38063,547
756,43	37877,182
756,62	38438,325
756,81	38051,259
757,00	37975,485
757,19	38446,517
757,38	38161,850
757,56	38432,182
757,75	38616,499
757,94	38460,853
758,13	38915,502
758,32	38528,436
758,51	39071,148
758,69	38641,074
758,88	38512,052
759,07	38333,879
759,26	38333,879
759,45	38366,647
759,63	38151,610
759,82	38159,802
760,01	38063,547
760,20	38036,924
760,39	38233,529
760,57	38026,684
760,76	38030,780
760,95	37418,437
761,14	37899,710
761,33	38251,960
761,51	38129,082
761,70	38354,359
761,89	38239,672
762,08	37807,551
762,27	38243,768
762,45	37479,876
762,64	37524,931
762,83	37467,588
763,02	36894,157
763,21	37111,242
763,39	37135,817
763,58	36951,500
763,77	36806,094
763,96	36734,415
764,14	36816,334
764,33	36535,762
764,52	36607,441
764,71	36980,172
764,89	37029,323
765,08	37287,367
765,27	37172,681
765,46	36910,541
765,65	36394,453
765,83	36160,984
766,02	36083,161
766,21	35857,885
766,40	36034,010
766,58	35726,815
766,77	35700,191
766,96	36636,113
767,15	36361,685
767,33	36777,423
767,52	36718,032
767,71	36847,054
767,90	37250,504
768,08	37541,315
768,27	37086,666
768,46	37578,179
768,64	37631,426
768,83	37064,138
769,02	37129,673
769,21	36642,257
769,39	36611,537
769,58	36777,423
769,77	37068,234
769,96	36799,950
770,14	36705,744
770,33	36801,998
770,52	36730,320
770,70	36314,582
770,89	36861,390
771,08	36347,349
771,27	36181,464
771,45	36427,220
771,64	36711,888
771,83	36548,050
772,01	36357,589
772,20	36601,298
772,39	36435,412
772,57	36056,538
772,76	36404,692
772,95	36273,622
773,14	36378,069
773,32	36001,243
773,51	36003,291
773,70	35792,350
773,88	35634,656
774,07	34604,528
774,26	34952,683
774,44	34903,531
774,63	34702,830
774,82	33971,706
775,00	34840,044
775,19	34739,694
775,38	34858,476
775,56	34856,428
775,75	34971,114
775,94	34823,661
776,12	35081,705
776,31	35182,055
776,50	34866,668
776,68	34915,819
776,87	34934,251
777,06	34553,329
777,24	34180,598
777,43	34360,820
777,62	34811,373
777,80	34684,399
777,99	34700,782
778,18	35038,697
778,36	34665,967
778,55	35012,074
778,74	34893,292
778,92	34733,550
779,11	34473,458
779,29	34514,417
779,48	34131,447
779,67	34113,015
779,85	33777,149
780,04	33912,315
780,23	33680,894
780,41	34346,484
780,60	33707,518
780,79	34301,429
780,97	33652,222
781,16	34006,521
781,34	34254,325
781,53	33920,506
781,72	33883,643
781,90	33897,979
782,09	33840,636
782,28	33846,780
782,46	33943,034
782,65	33910,267
782,83	34106,872
783,02	33582,592
783,21	33510,913
783,39	33273,348
783,58	33543,680
783,76	33453,570
783,95	33467,905
784,14	33781,245
784,32	33586,688
784,51	33809,916
784,69	34084,344
784,88	33936,890
785,06	33492,481
785,25	34072,056
785,44	33768,957
785,62	33687,038
785,81	33334,787
785,99	33064,455
786,18	32947,721
786,37	32622,094
786,55	32445,969
786,74	32904,714
786,92	32695,821
787,11	32884,234
787,29	33277,444
787,48	33410,562
787,67	33058,312
787,85	33322,500
788,04	33377,795
788,22	33175,046
788,41	32964,105
788,59	32704,013
788,78	32648,718
788,96	32222,740
789,15	32013,848
789,34	31837,722
789,52	31417,889
789,71	31589,918
789,89	31641,117
790,08	32075,287
790,26	32056,855
790,45	31993,368
790,63	31370,785
790,82	31653,405
791,00	31460,896
791,19	31743,516
791,38	31997,464
791,56	31665,693
791,75	31786,523
791,93	31458,848
792,12	32095,766
792,30	31673,885
792,49	31313,442
792,67	31442,464
792,86	31639,069
793,04	31493,663
793,23	31268,387
793,41	31479,328
793,60	31241,763
793,78	31098,405
793,97	31219,236
794,15	31045,158
794,34	31342,114
794,52	31098,405
794,71	31258,147
794,89	31133,221
795,08	31057,446
795,26	30772,778
795,45	30973,479
795,63	30955,048
795,82	30875,177
796,00	31157,797
796,19	30989,863
796,37	31438,368
796,56	32108,054
796,74	32292,371
796,93	32157,205
797,11	32062,999
797,30	32439,825
797,48	32378,386
797,67	32239,124
797,85	32226,836
798,04	31821,338
798,22	32101,910
798,41	32036,375
798,59	31753,755
798,77	31708,700
798,96	31680,029
799,14	31479,328
799,33	31237,667
799,51	31866,394
799,70	31510,047
799,88	31475,232
800,07	31714,844
800,25	31393,313
800,44	32187,925
800,62	32249,364
800,80	32208,405
800,99	32830,987
801,17	32417,297
801,36	31745,564
801,54	31770,139
801,73	31477,280
801,91	31290,915
802,10	30975,527
802,28	30957,096
802,46	30649,900
802,65	30926,376
802,83	30547,502
803,02	30719,531
803,20	30637,612
803,39	30025,270
803,57	30713,387
803,75	30846,505
803,94	30854,697
804,12	30961,192
804,31	30938,664
804,49	30848,553
804,67	30944,808
804,86	30834,218
805,04	30854,697
805,23	30815,786
805,41	30449,199
805,59	30621,229
805,78	30420,528
805,96	30404,144
806,15	30563,886
806,33	30578,221
806,51	30303,794
806,70	30520,878
806,88	30594,605
807,07	30361,137
807,25	30354,993
807,43	30262,834
807,62	30758,443
807,80	30248,498
807,99	30402,096
808,17	30807,594
808,35	30199,347
808,54	30516,782
808,72	30340,657
808,90	30025,270
809,09	30025,270
809,27	29754,938
809,46	29507,134
809,64	29421,119
809,82	29974,071
810,01	29814,329
810,19	30545,454
810,37	30273,074
810,56	30385,712
810,74	30381,616
810,92	29693,499
811,11	29744,698
811,29	29484,606
811,48	29161,027
811,66	28862,024
811,84	29343,296
812,03	29419,071
812,21	29318,721
812,39	29300,289
812,58	29070,916
812,76	29109,828
812,94	28958,278
813,13	29081,156
813,31	28573,260
813,49	28882,503
813,68	29087,300
813,86	29126,212
814,04	29447,743
814,23	29910,584
814,41	29756,986
814,59	30342,705
814,78	29845,049
814,96	30113,332
815,14	30008,886
815,33	29218,370
815,51	29144,643
815,69	28841,544
815,87	28210,770
816,06	28470,862
816,24	28165,714
816,42	27919,958
816,61	27692,633
816,79	27809,368
816,97	27958,869
817,16	27922,006
817,34	28245,585
817,52	27635,290
817,70	28698,186
817,89	28526,157
818,07	28608,075
818,25	28667,467
818,44	28700,234
818,62	28423,758
818,80	28491,341
818,98	28040,788
819,17	27899,478
819,35	27895,382
819,53	27420,254
819,72	27459,165
819,90	27737,689
820,08	27100,770
820,26	27352,671
820,45	27356,767
820,63	27434,589
820,81	27532,892
820,99	27399,774
821,18	27410,014
821,36	27696,729
821,54	27270,752
821,73	27528,796
821,91	26943,077
822,09	27211,361
822,27	27309,663
822,46	26908,261
822,64	26879,590
822,82	26787,431
823,00	26506,860
823,19	26848,870
823,37	26472,044
823,55	26750,568
823,73	26375,790
823,91	26226,288
824,10	26525,291
824,28	26685,033
824,46	26273,391
824,64	26240,624
824,83	26295,919
825,01	26441,325
825,19	26349,166
825,37	26406,509
825,56	26349,166
825,74	26340,974
825,92	25986,675
826,10	26150,513
826,28	26218,096
826,47	25509,499
826,65	25695,864
826,83	25394,812
827,01	25198,208
827,19	25208,447
827,38	25290,366
827,56	25482,875
827,74	25403,004
827,92	25341,565
828,10	25288,318
828,29	25034,370
828,47	25556,602
828,65	25489,019
828,83	25626,233
829,01	25761,399
829,20	25433,724
829,38	25443,964
829,56	25704,056
829,74	25468,539
829,92	26021,491
830,10	25429,628
830,29	25255,551
830,47	25187,968
830,65	25159,296
830,83	25321,086
831,01	25104,001
831,20	25407,100
831,38	25235,071
831,56	24811,141
831,74	24807,045
831,92	24739,462
832,10	24608,392
832,29	24366,732
832,47	24344,205
832,65	24153,743
832,83	24168,079
833,01	24276,622
833,19	24178,319
833,37	24372,876
833,56	24508,042
833,74	24647,304
833,92	24710,791
834,10	24546,953
834,28	24946,307
834,46	24823,429
834,64	24903,300
834,83	24618,632
835,01	24872,580
835,19	24655,496
835,37	24772,230
835,55	24690,311
835,73	24569,481
835,91	24817,285
836,09	24923,780
836,28	24778,374
836,46	24438,411
836,64	24573,577
836,82	24176,271
837,00	24280,718
837,18	23781,013
837,36	24182,415
837,54	23572,120
837,72	23905,939
837,91	23932,563
838,09	24293,005
838,27	24157,839
838,45	23934,611
838,63	24053,393
838,81	24221,326
838,99	23883,412
839,17	23627,415
839,35	24258,190
839,53	23590,552
839,72	23301,788
839,90	23346,844
840,08	22931,106
840,26	22738,597
840,44	22619,815
840,62	22912,674
840,80	22840,995
840,98	22912,674
841,16	23006,881
841,34	22857,379
841,52	22679,206
841,70	23234,205
841,89	23125,663
842,07	22992,545
842,25	23185,054
842,43	23279,261
842,61	23453,338
842,79	23492,250
842,97	23152,287
843,15	23064,224
843,33	23051,936
843,51	23031,457
843,69	23127,711
843,87	22785,700
844,05	23010,977
844,23	22769,317
844,41	23025,313
844,59	23115,423
844,77	22918,818
844,95	22550,184
845,13	22765,221
845,31	22673,062
845,50	23156,383
845,68	22802,084
845,86	22851,235
846,04	23043,744
846,22	23039,648
846,40	22732,453
846,58	22761,125
846,76	22636,199
846,94	22826,660
847,12	22601,383
847,30	23070,368
847,48	23193,246
847,66	22953,634
847,84	23338,652
848,02	23094,944
848,20	23002,785
848,38	23168,670
848,56	23226,014
848,74	22879,907
848,92	22927,010
849,10	23109,279
849,28	23207,582
849,46	22996,641
849,64	22847,139
849,82	22881,955
850,00	22797,988
850,18	22642,342
850,36	22310,572
850,54	22365,867
850,72	22265,516
850,90	22351,531
851,08	21933,745
851,26	22218,413
851,44	22224,557
851,62	22009,520
851,80	22482,601
851,98	22281,900
852,16	22343,339
852,34	22709,925
852,52	22797,988
852,70	22687,398
852,87	22802,084
853,05	22838,948
853,23	22757,029
853,41	23080,608
853,59	23377,563
853,77	23111,327
853,95	22963,874
854,13	22630,055
854,31	22859,427
854,49	22564,520
854,67	22595,239
854,85	22431,402
855,03	22058,671
855,21	21810,867
855,39	22242,989
855,57	21780,148
855,75	21814,963
855,93	22150,830
856,11	22578,855
856,28	22419,114
856,46	22429,354
856,64	22666,918
856,82	22656,678
857,00	22574,760
857,18	22558,376
857,36	22285,996
857,54	22199,981
857,72	22132,398
857,90	22073,007
858,08	22064,815
858,26	21759,668
858,44	21898,930
858,61	21696,181
858,79	21831,347
858,97	21669,557
859,15	21841,587
859,33	21513,912
859,51	21745,332
859,69	21753,524
859,87	22312,620
860,05	22013,616
860,23	22181,550
860,40	22171,310
860,58	22189,741
860,76	22138,542
860,94	21849,779
861,12	22222,509
861,30	21984,945
861,48	21587,639
861,66	21874,354
861,84	21671,605
862,01	21937,841
862,19	21538,487
862,37	21501,624
862,55	21632,694
862,73	21728,948
862,91	21434,041
863,09	21503,672
863,27	21561,015
863,44	21405,369
863,62	21376,698
863,80	21657,270
863,98	21726,900
864,16	21847,731
864,34	21610,166
864,52	21743,284
864,69	21849,779
864,87	21679,797
865,05	21874,354
865,23	21886,642
865,41	21718,709
865,59	21501,624
865,76	21642,934
865,94	21460,665
866,12	21382,842
866,30	21503,672
866,48	21513,912
866,66	21323,451
866,83	21216,956
867,01	21200,572
867,19	21063,359
867,37	20864,706
867,55	20926,145
867,73	21022,399
867,90	21302,971
868,08	21614,262
868,26	21348,026
868,44	21270,203
868,62	21251,772
868,79	21409,465
868,97	21194,429
869,15	20926,145
869,33	20995,776
869,51	20977,344
869,69	21114,558
869,86	20668,101
870,04	21268,155
870,22	21059,263
870,40	21171,901
870,57	20883,137
870,75	21196,477
870,93	20958,912
871,11	20965,056
871,29	20821,698
871,46	20747,971
871,64	20864,706
871,82	20770,499
872,00	20733,636
872,18	20717,252
872,35	20911,809
872,53	20244,171
872,71	20203,212
872,89	20907,713
873,06	20426,440
873,24	20692,676
873,42	20440,776
873,60	20694,724
873,77	20528,839
873,95	20510,407
874,13	20788,931
874,31	20623,045
874,49	20715,204
874,66	20350,665
874,84	20485,831
875,02	20305,610
875,20	20424,392
875,37	20321,994
875,55	20620,997
875,73	20354,761
875,91	20661,957
876,08	20459,208
876,26	20223,691
876,44	20094,669
876,61	20299,466
876,79	20532,935
876,97	20463,304
877,15	20485,831
877,32	20369,097
877,50	20440,776
877,68	20356,809
877,86	20330,186
878,03	20463,304
878,21	20131,533
878,39	20012,751
878,56	20227,787
878,74	20432,584
878,92	20088,525
879,10	19965,647
879,27	19873,489
879,45	19947,216
879,63	19891,920
879,80	19744,467
879,98	19470,039
880,16	19562,198
880,34	19949,264
880,51	19769,042
880,69	19846,865
880,87	19883,729
881,04	20020,942
881,22	20090,573
881,40	19836,625
881,57	19762,898
881,75	19517,142
881,93	19912,400
882,10	19773,138
882,28	19844,817
882,46	19836,625
882,63	19902,160
882,81	20111,053
882,99	19908,304
883,16	20281,035
883,34	20338,378
883,52	20395,721
883,69	20109,005
883,87	20342,474
884,05	20371,145
884,22	20444,872
884,40	20309,706
884,58	20137,677
884,75	20426,440
884,93	20397,769
885,11	20543,175
885,28	20219,595
885,46	20534,983
885,64	20119,245
885,81	20211,404
885,99	20367,049
886,17	20168,396
886,34	20309,706
886,52	20293,322
886,70	20321,994
886,87	19896,016
887,05	20328,138
887,22	20049,614
887,40	20149,965
887,58	20014,799
887,75	20016,847
887,93	20248,267
888,11	20131,533
888,28	20471,496
888,46	19990,223
888,63	20350,665
888,81	20432,584
888,99	20707,012
889,16	21012,159
889,34	20696,772
889,51	21124,798
889,69	20967,104
889,87	20471,496
890,04	20543,175
890,22	20487,879
890,39	20514,503
890,57	20829,890
890,75	20559,558
890,92	20629,189
891,10	20729,540
891,27	20457,160
891,45	20688,580
891,63	20635,333
891,80	20633,285
891,98	20842,178
892,15	20510,407
892,33	21049,023
892,51	21130,942
892,68	21221,052
892,86	20758,211
893,03	21135,038
893,21	20838,082
893,38	21061,311
893,56	20856,514
893,74	21069,502
893,91	20715,204
894,09	20922,049
894,26	21380,794
894,44	21085,886
894,61	21018,303
894,79	21251,772
894,96	21186,237
895,14	21137,085
895,32	21057,215
895,49	21122,750
895,67	20692,676
895,84	21001,920
896,02	21286,587
896,19	20924,097
896,37	20813,506
896,54	20809,410
896,72	21018,303
896,89	20489,927
897,07	21429,945
897,25	20963,008
897,42	21096,126
897,60	21110,462
897,77	21051,071
897,95	21102,270
898,12	21257,916
898,30	21386,938
898,47	21253,820
898,65	21255,868
898,82	20938,432
899,00	20905,665
899,17	21237,436
899,35	20846,274
899,52	20915,905
899,70	20655,813
899,87	20866,754
900,05	20610,758
900,22	20569,798
900,40	20539,079
900,57	20739,780
900,75	20618,949
900,92	20780,739
901,10	20461,256
901,27	20979,392
901,45	20700,868
901,62	20784,835
901,80	20729,540
901,97	20528,839
902,15	20960,960
902,32	21020,351
902,50	20864,706
902,67	20729,540
902,85	20805,315
903,02	20717,252
903,20	20891,329
903,37	20627,141
903,54	20831,938
903,72	20600,518
903,89	20178,636
904,07	20401,865
904,24	20459,208
904,42	20238,027
904,59	19975,887
904,77	20448,968
904,94	20041,422
905,12	19971,791
905,29	20059,854
905,47	20358,857
905,64	20227,787
905,81	20197,068
905,99	20233,931
906,16	20506,311
906,34	20438,728
906,51	20149,965
906,69	20262,603
906,86	20291,274
907,03	20272,843
907,21	19998,415
907,38	20166,348
907,56	20131,533
907,73	20500,167
907,91	20463,304
908,08	20526,791
908,25	20344,522
908,43	20410,057
908,60	20510,407
908,78	20616,901
908,95	20696,772
909,13	20565,702
909,30	20788,931
909,47	20790,979
909,65	20985,536
909,82	20717,252
910,00	20498,119
910,17	20653,765
910,34	20674,245
910,52	20647,621
910,69	20453,064
910,87	20631,237
911,04	20362,953
911,21	20510,407
911,39	20856,514
911,56	20526,791
911,73	20661,957
911,91	20575,942
912,08	20643,525
912,26	20426,440
912,43	20551,366
912,60	20430,536
912,78	20293,322
912,95	20526,791
913,13	20643,525
913,30	20375,241
913,47	20487,879
913,65	20575,942
913,82	20436,680
913,99	20147,917
914,17	20530,887
914,34	19939,024
914,51	20342,474
914,69	19941,072
914,86	20022,990
915,03	20109,005
915,21	19998,415
915,38	19887,825
915,56	20510,407
915,73	19926,736
915,90	20131,533
916,08	20109,005
916,25	20395,721
916,42	20127,437
916,60	20774,595
916,77	20483,783
916,94	20625,093
917,12	20489,927
917,29	20205,260
917,46	20082,382
917,64	20397,769
917,81	20027,086
917,98	20395,721
918,16	20160,204
918,33	20156,108
918,50	19986,127
918,67	19922,640
918,85	20215,500
919,02	19783,378
919,19	20258,507
919,37	20168,396
919,54	19889,872
919,71	20285,130
919,89	20287,178
920,06	20442,824
920,23	20211,404
920,41	20092,621
920,58	20096,717
920,75	20022,990
920,92	20068,046
921,10	19924,688
921,27	20057,806
921,44	20233,931
921,62	19818,194
921,79	20182,732
921,96	20299,466
922,13	19934,928
922,31	20020,942
922,48	19820,242
922,65	20149,965
922,82	20221,643
923,00	20522,695
923,17	20481,735
923,34	20278,987
923,52	20340,426
923,69	20743,875
923,86	20745,923
924,03	20692,676
924,21	20360,905
924,38	20473,544
924,55	20676,292
924,72	20635,333
924,90	20707,012
925,07	20393,673
925,24	20494,023
925,41	20739,780
925,59	20422,344
925,76	20451,016
925,93	20553,414
926,10	20856,514
926,28	20573,894
926,45	20911,809
926,62	20356,809
926,79	20893,377
926,96	20526,791
927,14	20270,795
927,31	20539,079
927,48	20213,452
927,65	20172,492
927,83	20360,905
928,00	20283,082
928,17	20426,440
928,34	20238,027
928,51	20264,651
928,69	20432,584
928,86	20127,437
929,03	20508,359
929,20	20356,809
929,37	20106,957
929,55	20266,699
929,72	20471,496
929,89	20129,485
930,06	19998,415
930,23	20090,573
930,41	19990,223
930,58	19857,105
930,75	19734,227
930,92	19674,836
931,09	19486,423
931,27	19797,714
931,44	19611,349
931,61	19867,345
931,78	19312,345
931,95	19709,651
932,12	19838,673
932,30	20035,278
932,47	19791,570
932,64	19705,555
932,81	19633,876
932,98	19707,603
933,16	19998,415
933,33	19556,054
933,50	19721,939
933,67	19640,020
933,84	19531,478
934,01	19719,891
934,18	19902,160
934,36	19568,341
934,53	19457,751
934,70	19830,481
934,87	19228,379
935,04	18990,814
935,21	19420,888
935,38	19130,076
935,56	19246,810
935,73	19248,858
935,90	19148,508
936,07	19236,570
936,24	18999,006
936,41	19222,235
936,58	19257,050
936,76	19003,102
936,93	19134,172
937,10	19046,109
937,27	19211,995
937,44	18767,586
937,61	18732,770
937,78	18863,840
937,95	18925,279
938,13	18996,958
938,30	18747,106
938,47	18962,143
938,64	18796,257
938,81	18734,818
938,98	18736,866
939,15	18704,099
939,32	18560,741
939,49	18896,608
939,66	18593,508
939,84	18497,254
940,01	18288,361
940,18	18372,328
940,35	18370,280
940,52	18329,320
940,69	18556,645
940,86	18429,671
941,03	18415,335
941,20	18489,062
941,37	18386,663
941,54	18400,999
941,71	18255,593
941,89	18069,228
942,06	18517,733
942,23	18030,317
942,40	18071,276
942,57	17882,863
942,74	17839,856
942,91	17604,339
943,08	18228,970
943,25	17518,325
943,42	17590,004
943,59	17663,730
943,76	17342,199
943,93	17538,804
944,10	17047,292
944,27	17510,133
944,44	17407,734
944,61	17331,960
944,79	17350,391
944,96	17135,355
945,13	17102,587
945,30	17045,244
945,47	16803,584
945,64	16926,462
945,81	16856,831
945,98	16875,262
946,15	16582,403
946,32	16432,901
946,49	16727,809
946,66	16375,558
946,83	16461,573
947,00	16205,577
947,17	16256,776
947,34	16320,263
947,51	16060,171
947,68	16117,514
947,85	16092,938
948,02	15884,046
948,19	15619,858
948,36	15775,503
948,53	15632,145
948,70	15476,500
948,87	15484,692
949,04	15425,301
949,21	15075,098
949,38	15226,648
949,55	15128,345
949,72	14798,622
949,89	15036,187
950,06	15175,448
950,23	14915,356
950,40	14499,619
950,57	14745,375
950,74	14688,032
950,91	14374,693
951,08	14298,918
951,25	14423,844
951,42	14274,342
951,59	14434,084
951,76	14272,294
951,93	14176,040
952,10	13827,885
952,27	13901,612
952,44	13778,734
952,61	13666,095
952,77	13297,461
952,94	13504,306
953,11	13430,579
953,28	13143,863
953,45	13276,981
953,62	13115,192
953,79	13102,904
953,96	13078,328
954,13	12705,598
954,30	12875,580
954,47	12611,392
954,64	12498,753
954,81	12392,259
954,98	12244,805
955,15	12064,584
955,32	12242,757
955,49	11841,355
955,65	11718,477
955,82	11730,765
955,99	11997,001
956,16	11781,964
956,33	11431,762
956,50	11571,023
956,67	11392,850
956,84	11525,968
957,01	11116,374
957,18	11181,909
957,35	10950,489
957,52	10866,522
957,68	10596,190
957,85	10542,943
958,02	10622,814
958,19	10426,209
958,36	10260,323
958,53	10299,235
958,70	10047,335
958,87	9834,346
959,04	10069,862
959,21	9817,962
959,37	9906,025
959,54	9957,224
959,71	9580,398
959,88	9709,420
960,05	9709,420
960,22	9545,582
960,39	9727,852
960,56	9477,999
960,72	9496,431
960,89	9521,007
961,06	9277,298
961,23	9348,977
961,40	9561,966
961,57	9336,690
961,74	9029,494
961,90	9269,107
962,07	9189,236
962,24	9215,859
962,41	9305,970
962,58	9015,158
962,75	8947,575
962,92	8980,343
963,08	8793,978
963,25	8761,210
963,42	8808,314
963,59	8576,893
963,76	8441,727
963,93	8478,591
964,10	8445,823
964,26	8542,078
964,43	8337,281
964,60	8040,325
964,77	8370,048
964,94	7933,831
965,10	8146,820
965,27	7874,440
965,44	7774,089
965,61	7790,473
965,78	7913,351
965,95	8001,414
966,11	7749,514
966,28	7606,156
966,45	7808,905
966,62	7634,828
966,79	7671,691
966,95	7583,628
967,12	7696,267
967,29	7493,518
967,46	7602,060
967,63	7602,060
967,79	7640,971
967,96	7577,484
968,13	7624,588
968,30	7767,945
968,47	7612,300
968,63	7579,532
968,80	7726,986
968,97	7714,698
969,14	7808,905
969,31	7579,532
969,47	7591,820
969,64	7767,945
969,81	7352,208
969,98	7475,086
970,14	7450,510
970,31	7409,551
970,48	7057,300
970,65	7325,584
970,81	7176,082
970,98	7040,917
971,15	7053,204
971,32	6838,168
971,48	6967,190
971,65	6893,463
971,82	6840,216
971,99	6799,256
972,15	6707,098
972,32	6877,079
972,49	6854,551
972,66	6707,098
972,82	6766,489
972,99	6778,777
973,16	6905,751
973,33	6610,843
973,49	6758,297
973,66	6672,282
973,83	6696,858
974,00	6512,541
974,16	6526,876
974,33	6746,009
974,50	6504,349
974,67	6391,710
974,83	6623,131
975,00	6543,260
975,17	6629,275
975,33	6543,260
975,50	6762,393
975,67	6678,426
975,84	6731,673
976,00	6680,474
976,17	6659,994
976,34	6551,452
976,50	6557,596
976,67	6490,013
976,84	6420,382
977,00	6373,279
977,17	6395,806
977,34	6592,411
977,50	6393,758
977,67	6543,260
977,84	6373,279
978,01	6289,312
978,17	6490,013
978,34	6180,770
978,51	6346,655
978,67	6360,991
978,84	6145,954
979,01	6274,976
979,17	6055,844
979,34	6021,028
979,51	6094,755
979,67	6119,331
979,84	6305,696
980,01	6143,906
980,17	5945,253
980,34	5914,534
980,51	5971,877
980,67	5844,903
980,84	5941,157
981,01	5775,272
981,17	5951,397
981,34	5922,726
981,50	5904,294
981,67	5789,608
981,84	5914,534
982,00	5955,493
982,17	5828,519
982,34	5674,921
982,50	5994,405
982,67	5912,486
982,84	5967,781
983,00	5742,504
983,17	5973,925
983,33	5820,327
983,50	5885,862
983,67	5742,504
983,83	5740,456
984,00	5777,320
984,17	5816,231
984,33	5826,471
984,50	5787,560
984,66	5818,279
984,83	5758,888
985,00	5699,497
985,16	5738,408
985,33	5500,844
985,49	5638,058
985,66	5640,106
985,83	5656,490
985,99	5502,892
986,16	5623,722
986,32	5549,995
986,49	5447,597
986,66	5484,460
986,82	5355,438
986,99	5394,350
987,15	5265,328
987,32	5408,685
987,49	5533,612
987,65	5349,294
987,82	5361,582
987,98	5332,911
988,15	5380,014
988,31	5433,261
988,48	5441,453
988,65	5468,077
988,81	5218,224
988,98	5410,733
989,14	5240,752
989,31	5265,328
989,47	5246,896
989,64	5185,457
989,80	5040,051
989,97	5293,999
990,14	5236,656
990,30	5046,195
990,47	5001,140
990,63	5177,265
990,80	4845,494
990,96	5236,656
991,13	5183,409
991,29	5263,280
991,46	5199,793
991,62	5205,937
991,79	5185,457
991,95	5150,641
992,12	5255,088
992,29	5181,361
992,45	5099,442
992,62	5312,431
992,78	5220,272
992,95	5103,538
993,11	5054,387
993,28	5121,970
993,44	5085,106
993,61	5029,811
993,77	5070,771
993,94	5005,236
994,10	5218,224
994,27	5275,568
994,43	5009,332
994,60	5029,811
994,76	4935,605
994,93	5013,428
995,09	5076,915
995,26	5095,346
995,42	4880,310
995,59	4931,509
995,75	4843,446
995,92	5025,715
996,08	4878,262
996,25	4761,527
996,41	4767,671
996,58	4880,310
996,74	4687,800
996,91	4710,328
997,07	4634,553
997,23	4675,513
997,40	4784,055
997,56	4698,040
997,73	4831,158
997,89	4526,011
998,06	4644,793
998,22	4644,793
998,39	4747,192
998,55	4585,402
998,72	4599,738
998,88	4663,225
999,05	4675,513
999,21	4640,697
999,37	4501,435
999,54	4489,148
999,70	4337,598
999,87	4476,860
1000,03	4628,409
1000,20	4591,546
1000,36	4603,834
1000,52	4450,236
1000,69	4769,719
1000,85	4435,900
1001,02	4513,723
1001,18	4423,612
1001,35	4566,970
1001,51	4337,598
1001,67	4585,402
1001,84	4513,723
1002,00	4386,749
1002,17	4292,542
1002,33	4310,974
1002,50	4304,830
1002,66	4304,830
1002,82	4298,686
1002,99	4261,823
1003,15	4247,487
1003,32	4270,015
1003,48	4300,734
1003,64	4263,871
1003,81	4313,022
1003,97	4296,638
1004,14	4302,782
1004,30	4073,410
1004,46	4278,207
1004,63	4313,022
1004,79	3960,772
1004,95	4104,129
1005,12	4081,602
1005,28	4265,919
1005,45	4118,465
1005,61	4007,875
1005,77	4071,362
1005,94	4124,609
1006,10	3874,757
1006,26	4091,842
1006,43	3788,742
1006,59	4042,690
1006,76	3893,189
1006,92	4087,746
1007,08	3938,244
1007,25	3917,764
1007,41	3954,628
1007,57	3766,215
1007,74	3964,868
1007,90	3960,772
1008,06	3819,462
1008,23	3917,764
1008,39	4007,875
1008,55	3997,635
1008,72	3891,141
1008,88	3964,868
1009,04	4145,089
1009,21	3979,203
1009,37	3938,244
1009,53	3870,661
1009,70	3911,620
1009,86	3995,587
1010,02	4034,498
1010,19	3919,812
1010,35	3971,011
1010,51	3940,292
1010,68	3850,181
1010,84	3903,428
1011,00	3995,587
1011,17	3825,606
1011,33	3837,893
1011,49	3950,532
1011,66	3835,845
1011,82	3971,011
1011,98	4046,786
1012,14	3710,919
1012,31	3880,901
1012,47	3817,414
1012,63	3923,908
1012,80	3831,750
1012,96	3811,270
1013,12	3817,414
1013,29	3737,543
1013,45	3825,606
1013,61	3624,905
1013,77	3788,742
1013,94	3577,801
1014,10	3553,226
1014,26	3495,883
1014,43	3715,015
1014,59	3672,008
1014,75	3641,288
1014,91	3692,488
1015,08	3700,680
1015,24	3559,370
1015,40	3665,864
1015,56	3717,063
1015,73	3516,362
1015,89	3428,300
1016,05	3655,624
1016,21	3403,724
1016,38	3721,159
1016,54	3694,536
1016,70	3526,602
1016,86	3629,001
1017,03	3583,945
1017,19	3678,152
1017,35	3553,226
1017,51	3530,698
1017,68	3487,691
1017,84	3655,624
1018,00	3434,444
1018,16	3420,108
1018,33	3420,108
1018,49	3452,875
1018,65	3551,178
1018,81	3479,499
1018,97	3471,307
1019,14	3485,643
1019,30	3499,979
1019,46	3487,691
1019,62	3196,879
1019,79	3413,964
1019,95	3354,573
1020,11	3291,086
1020,27	3262,414
1020,43	3282,894
1020,60	3344,333
1020,76	3194,831
1020,92	3280,846
1021,08	3332,045
1021,24	3309,518
1021,41	3471,307
1021,57	3278,798
1021,73	3221,455
1021,89	3282,894
1022,05	3348,429
1022,21	3235,791
1022,38	3121,104
1022,54	3276,750
1022,70	3219,407
1022,86	3188,687
1023,02	3211,215
1023,19	3207,119
1023,35	3272,654
1023,51	3174,352
1023,67	3098,577
1023,83	3334,093
1023,99	3102,673
1024,16	3022,802
1024,32	3182,543
1024,48	3227,599
1024,64	3078,097
1024,80	3147,728
1024,96	3286,990
1025,12	3215,311
1025,29	2987,986
1025,45	3059,665
1025,61	3100,625
1025,77	3096,529
1025,93	3078,097
1026,09	3098,577
1026,26	3041,234
1026,42	2920,403
1026,58	3020,754
1026,74	2998,226
1026,90	2936,787
1027,06	2994,130
1027,22	3170,256
1027,38	3051,473
1027,55	3096,529
1027,71	3049,425
1027,87	3010,514
1028,03	2961,363
1028,19	3039,186
1028,35	2934,739
1028,51	2924,499
1028,67	2881,492
1028,83	2869,204
1029,00	3014,610
1029,16	2809,813
1029,32	2951,123
1029,48	2871,252
1029,64	2891,732
1029,80	2711,511
1029,96	3004,370
1030,12	2926,547
1030,28	2875,348
1030,44	3008,466
1030,61	2996,178
1030,77	2781,142
1030,93	2994,130
1031,09	2809,813
1031,25	2777,046
1031,41	2883,540
1031,57	2756,566
1031,73	2844,629
1031,89	2813,909
1032,05	2758,614
1032,21	2777,046
1032,37	2703,319
1032,53	2813,909
1032,69	2924,499
1032,86	2711,511
1033,02	2725,846
1033,18	2748,374
1033,34	2635,736
1033,50	2795,477
1033,66	2705,367
1033,82	2781,142
1033,98	2789,333
1034,14	2811,861
1034,30	2611,160
1034,46	2717,655
1034,62	2652,120
1034,78	2815,957
1034,94	2656,215
1035,10	2666,455
1035,26	2666,455
1035,42	2600,920
1035,58	2691,031
1035,74	2609,112
1035,90	2664,407
1036,06	2553,817
1036,22	2607,064
1036,38	2656,215
1036,54	2564,057
1036,70	2584,537
1036,86	2564,057
1037,02	2627,544
1037,18	2707,415
1037,34	2566,105
1037,50	2557,913
1037,66	2547,673
1037,82	2555,865
1037,98	2750,422
1038,14	2435,035
1038,30	2535,385
1038,46	2555,865
1038,62	2570,201
1038,78	2598,872
1038,94	2465,754
1039,10	2625,496
1039,26	2402,267
1039,42	2465,754
1039,58	2426,843
1039,74	2439,131
1039,90	2551,769
1040,06	2342,876
>>>>>End Spectral Data<<<<<
