SpectraSuite Data File
++++++++++++++++++++++++++++++++++++
Date: Tue Jan 31 19:17:03 EET 2017
User: optolab
Dark Spectrum Present: Yes
Reference Spectrum Present: Yes
Number of Sampled Component Spectra: 1
Spectrometers: USB4C02475
Integration Time (usec): 100000 (USB4C02475)
Spectra Averaged: 1 (USB4C02475)
Boxcar Smoothing: 0 (USB4C02475)
Correct for Electrical Dark: No (USB4C02475)
Strobe/Lamp Enabled: No (USB4C02475)
Correct for Detector Non-linearity: No (USB4C02475)
Correct for Stray Light: No (USB4C02475)
Number of Pixels in Processed Spectrum: 3648
>>>>>Begin Processed Spectral Data<<<<<
344,91	130,769
345,13	130,769
345,35	130,769
345,57	0,000
345,79	450,000
346,00	380,000
346,22	-194,444
346,44	538,462
346,66	450,000
346,87	116,667
347,09	30,556
347,31	-1766,667
347,53	-233,333
347,74	-392,308
347,96	328,571
348,18	1766,667
348,40	-142,857
348,61	191,429
348,83	95,122
349,05	114,286
349,27	373,684
349,48	115,385
349,70	447,059
349,92	109,756
350,14	622,222
350,35	70,732
350,57	180,000
350,79	176,471
351,01	753,846
351,22	100,000
351,44	-400,000
351,66	369,231
351,87	88,462
352,09	193,939
352,31	343,750
352,53	126,667
352,74	371,429
352,96	118,605
353,18	101,852
353,40	69,565
353,61	160,000
353,83	166,667
354,05	12,121
354,26	257,143
354,48	-575,000
354,70	63,415
354,92	169,697
355,13	120,588
355,35	0,000
355,57	33,333
355,78	117,647
356,00	114,706
356,22	311,111
356,44	-330,769
356,65	106,061
356,87	185,714
357,09	196,667
357,30	117,460
357,52	167,857
357,74	-4050,000
357,95	1720,000
358,17	116,667
358,39	111,765
358,60	620,000
358,82	476,471
359,04	-162,500
359,26	132,812
359,47	217,391
359,69	-43,243
359,91	192,308
360,12	369,231
360,34	100,000
360,56	162,069
360,77	1285,714
360,99	167,308
361,21	300,000
361,42	181,250
361,64	246,154
361,86	102,083
362,07	75,000
362,29	67,647
362,51	165,385
362,72	102,703
362,94	404,762
363,16	330,000
363,37	-48,387
363,59	237,931
363,81	-300,000
364,02	47,059
364,24	265,217
364,46	254,054
364,67	142,222
364,89	315,000
365,11	2050,000
365,32	115,663
365,54	464,286
365,76	37,931
365,97	114,286
366,19	1150,000
366,41	257,692
366,62	221,053
366,84	126,316
367,05	123,077
367,27	-200,000
367,49	219,512
367,70	787,500
367,92	154,839
368,14	3700,000
368,35	152,113
368,57	171,795
368,79	91,176
369,00	0,000
369,22	25,000
369,43	313,636
369,65	85,075
369,87	92,958
370,08	1171,429
370,30	205,882
370,51	101,852
370,73	140,385
370,95	300,000
371,16	1150,000
371,38	97,727
371,60	203,846
371,81	105,405
372,03	315,789
372,24	309,091
372,46	134,146
372,68	115,625
372,89	248,571
373,11	209,524
373,32	506,667
373,54	216,000
373,76	59,574
373,97	89,247
374,19	135,135
374,40	250,000
374,62	-266,667
374,84	176,000
375,05	175,676
375,27	122,642
375,48	165,116
375,70	70,455
375,92	166,667
376,13	44,444
376,35	1000,000
376,56	140,000
376,78	70,833
376,99	83,117
377,21	-2700,000
377,43	70,833
377,64	210,526
377,86	195,652
378,07	106,667
378,29	-106,452
378,51	161,538
378,72	88,889
378,94	82,353
379,15	200,000
379,37	212,500
379,58	155,357
379,80	115,385
380,01	475,000
380,23	263,158
380,45	57,692
380,66	400,000
380,88	-1250,000
381,09	94,286
381,31	81,159
381,52	161,111
381,74	92,537
381,95	141,463
382,17	161,667
382,39	209,091
382,60	584,615
382,82	137,143
383,03	228,846
383,25	79,487
383,46	73,171
383,68	71,429
383,89	510,000
384,11	100,000
384,32	-50,000
384,54	153,333
384,76	3900,000
384,97	50,617
385,19	102,083
385,40	129,167
385,62	272,222
385,83	197,297
386,05	104,651
386,26	59,459
386,48	184,000
386,69	105,660
386,91	185,294
387,12	370,833
387,34	178,431
387,55	100,000
387,77	238,095
387,98	-814,286
388,20	251,613
388,41	215,385
388,63	155,814
388,84	115,385
389,06	61,538
389,27	89,286
389,49	162,500
389,70	64,286
389,92	76,562
390,13	-182,609
390,35	82,000
390,56	107,576
390,78	67,742
390,99	766,667
391,21	185,714
391,42	119,672
391,64	-85,185
391,85	85,000
392,07	68,000
392,28	111,250
392,50	66,667
392,71	225,926
392,93	151,351
393,14	-184,211
393,36	259,375
393,57	168,627
393,79	18,182
394,00	116,364
394,22	63,636
394,43	205,000
394,65	1000,000
394,86	104,545
395,08	80,822
395,29	134,884
395,50	137,500
395,72	130,556
395,93	102,083
396,15	161,972
396,36	64,151
396,58	300,000
396,79	112,727
397,01	104,819
397,22	127,778
397,44	-300,000
397,65	114,474
397,87	41,026
398,08	108,000
398,29	281,250
398,51	195,833
398,72	69,000
398,94	100,000
399,15	24,490
399,37	33,333
399,58	225,806
399,80	0,000
400,01	40,580
400,22	110,204
400,44	313,333
400,65	726,667
400,87	67,213
401,08	78,947
401,30	71,000
401,51	81,818
401,72	127,907
401,94	101,613
402,15	96,610
402,37	178,788
402,58	64,444
402,80	94,643
403,01	61,702
403,22	51,667
403,44	76,250
403,65	63,636
403,87	94,872
404,08	21,538
404,30	-3,448
404,51	66,071
404,72	97,561
404,94	124,286
405,15	46,377
405,37	81,944
405,58	-45,455
405,79	51,899
406,01	79,439
406,22	34,146
406,44	57,143
406,65	75,342
406,86	36,364
407,08	233,333
407,29	35,955
407,51	50,000
407,72	90,741
407,93	59,060
408,15	37,838
408,36	86,111
408,58	82,114
408,79	69,892
409,00	46,591
409,22	69,231
409,43	92,135
409,64	-11,404
409,86	14,184
410,07	50,000
410,29	46,067
410,50	34,932
410,71	87,209
410,93	55,882
411,14	37,500
411,35	73,276
411,57	24,757
411,78	24,171
412,00	38,983
412,21	54,335
412,42	7,843
412,64	54,167
412,85	48,187
413,06	49,756
413,28	73,143
413,49	36,364
413,70	63,538
413,92	42,322
414,13	38,996
414,34	47,945
414,56	47,419
414,77	40,530
414,98	44,179
415,20	44,473
415,41	38,871
415,63	42,378
415,84	48,160
416,05	50,000
416,27	46,377
416,48	47,000
416,69	46,135
416,91	53,455
417,12	48,970
417,33	56,770
417,55	42,291
417,76	50,202
417,97	56,064
418,19	47,387
418,40	45,554
418,61	56,089
418,83	46,595
419,04	51,870
419,25	56,209
419,46	50,000
419,68	52,496
419,89	48,071
420,10	45,854
420,32	50,317
420,53	52,572
420,74	51,415
420,96	46,392
421,17	49,363
421,38	51,921
421,60	50,320
421,81	54,839
422,02	47,879
422,23	52,161
422,45	42,832
422,66	46,780
422,87	47,054
423,09	44,860
423,30	48,537
423,51	47,426
423,73	47,909
423,94	46,893
424,15	40,302
424,36	46,383
424,58	46,537
424,79	46,439
425,00	49,708
425,22	48,305
425,43	52,193
425,64	50,598
425,85	55,288
426,07	48,665
426,28	52,397
426,49	52,411
426,71	46,938
426,92	51,995
427,13	50,460
427,34	54,263
427,56	53,222
427,77	52,763
427,98	52,094
428,19	49,708
428,41	57,698
428,62	57,428
428,83	60,384
429,04	60,420
429,26	62,728
429,47	64,734
429,68	62,636
429,89	63,986
430,11	66,208
430,32	65,280
430,53	68,002
430,74	68,640
430,96	66,710
431,17	71,267
431,38	71,474
431,59	70,619
431,81	75,545
432,02	77,457
432,23	76,103
432,44	80,896
432,66	82,614
432,87	84,518
433,08	84,618
433,29	86,999
433,51	84,073
433,72	81,034
433,93	81,737
434,14	80,771
434,35	78,257
434,57	77,570
434,78	73,620
434,99	75,500
435,20	73,892
435,42	73,892
435,63	74,201
435,84	72,680
436,05	74,195
436,26	72,780
436,48	72,659
436,69	72,570
436,90	69,921
437,11	71,071
437,32	68,760
437,54	67,889
437,75	69,038
437,96	69,548
438,17	70,519
438,38	70,683
438,60	72,061
438,81	74,082
439,02	76,271
439,23	78,278
439,44	80,460
439,66	81,789
439,87	84,346
440,08	84,698
440,29	85,828
440,50	85,079
440,72	84,921
440,93	84,299
441,14	83,512
441,35	82,504
441,56	81,336
441,77	78,857
441,99	77,216
442,20	75,505
442,41	74,515
442,62	73,844
442,83	72,607
443,04	73,502
443,26	72,654
443,47	72,559
443,68	73,216
443,89	74,573
444,10	73,950
444,31	74,829
444,53	75,297
444,74	76,181
444,95	76,885
445,16	78,112
445,37	78,016
445,58	78,013
445,80	78,189
446,01	77,870
446,22	78,359
446,43	76,262
446,64	74,622
446,85	72,506
447,06	70,997
447,28	69,477
447,49	66,406
447,70	63,331
447,91	62,020
448,12	60,517
448,33	60,223
448,54	59,706
448,76	60,847
448,97	61,829
449,18	62,886
449,39	63,827
449,60	64,351
449,81	68,266
450,02	69,292
450,23	70,374
450,45	73,028
450,66	73,801
450,87	74,821
451,08	75,963
451,29	77,394
451,50	77,577
451,71	76,899
451,92	76,120
452,13	76,561
452,35	75,647
452,56	73,377
452,77	73,473
452,98	73,628
453,19	72,822
453,40	73,556
453,61	71,923
453,82	72,089
454,03	71,969
454,25	69,874
454,46	69,282
454,67	69,925
454,88	68,597
455,09	66,951
455,30	65,757
455,51	63,597
455,72	61,210
455,93	58,845
456,14	55,987
456,35	52,861
456,56	50,696
456,78	48,248
456,99	44,444
457,20	41,730
457,41	38,833
457,62	35,251
457,83	32,018
458,04	30,088
458,25	26,706
458,46	24,532
458,67	22,068
458,88	20,038
459,09	17,864
459,30	16,578
459,51	14,427
459,73	12,705
459,94	10,693
460,15	9,491
460,36	8,234
460,57	7,192
460,78	5,769
460,99	4,664
461,20	3,975
461,41	3,041
461,62	2,559
461,83	2,183
462,04	2,077
462,25	1,367
462,46	1,099
462,67	0,956
462,88	0,993
463,09	0,932
463,30	0,638
463,51	0,631
463,72	0,459
463,93	0,640
464,15	0,504
464,36	0,550
464,57	0,509
464,78	0,517
464,99	0,433
465,20	0,294
465,41	0,199
465,62	0,353
465,83	0,381
466,04	0,437
466,25	0,255
466,46	0,403
466,67	0,147
466,88	0,268
467,09	0,286
467,30	0,205
467,51	0,242
467,72	0,248
467,93	0,264
468,14	0,103
468,35	0,373
468,56	0,213
468,77	0,258
468,98	0,266
469,19	0,120
469,40	0,080
469,61	0,220
469,82	0,237
470,03	0,270
470,24	0,407
470,45	0,368
470,66	0,242
470,87	0,261
471,08	0,449
471,29	0,077
471,50	0,312
471,71	0,157
471,92	0,396
472,13	0,236
472,34	0,308
472,55	0,346
472,76	0,326
472,97	0,164
473,18	0,319
473,39	0,278
473,60	0,319
473,81	0,478
474,01	0,316
474,22	0,383
474,43	0,387
474,64	0,345
474,85	0,079
475,06	0,402
475,27	0,241
475,48	0,613
475,69	0,325
475,90	0,290
476,11	0,356
476,32	0,223
476,53	0,273
476,74	0,394
476,95	0,362
477,16	0,393
477,37	0,432
477,58	0,280
477,79	0,219
478,00	0,493
478,21	0,320
478,41	0,191
478,62	0,254
478,83	0,344
479,04	0,329
479,25	0,380
479,46	0,295
479,67	0,427
479,88	0,645
480,09	0,461
480,30	0,206
480,51	0,296
480,72	0,370
480,93	0,154
481,14	0,530
481,34	0,461
481,55	0,454
481,76	0,453
481,97	0,309
482,18	0,358
482,39	0,317
482,60	0,336
482,81	0,308
483,02	0,553
483,23	0,489
483,44	0,232
483,65	0,353
483,85	0,288
484,06	0,261
484,27	0,392
484,48	0,357
484,69	0,416
484,90	0,168
485,11	0,259
485,32	0,284
485,53	0,472
485,73	0,318
485,94	0,281
486,15	0,405
486,36	0,166
486,57	0,365
486,78	0,186
486,99	0,353
487,20	0,425
487,41	0,511
487,61	0,381
487,82	0,319
488,03	0,348
488,24	0,309
488,45	0,287
488,66	0,519
488,87	0,405
489,08	0,422
489,28	0,576
489,49	0,359
489,70	0,383
489,91	0,463
490,12	0,383
490,33	0,476
490,54	0,267
490,74	0,291
490,95	0,295
491,16	0,484
491,37	0,258
491,58	0,154
491,79	0,208
492,00	0,230
492,20	0,397
492,41	0,429
492,62	0,363
492,83	0,411
493,04	0,456
493,25	0,263
493,45	0,462
493,66	0,427
493,87	0,483
494,08	0,390
494,29	0,535
494,50	0,412
494,70	0,492
494,91	0,620
495,12	0,670
495,33	0,801
495,54	0,849
495,75	1,129
495,95	1,367
496,16	1,573
496,37	2,162
496,58	2,300
496,79	2,402
496,99	2,713
497,20	3,081
497,41	3,649
497,62	3,880
497,83	4,205
498,04	4,578
498,24	5,095
498,45	5,624
498,66	6,121
498,87	6,802
499,08	7,595
499,28	8,013
499,49	9,157
499,70	10,112
499,91	11,121
500,12	11,940
500,32	13,217
500,53	14,722
500,74	15,797
500,95	16,858
501,15	17,740
501,36	19,334
501,57	20,500
501,78	21,091
501,99	22,046
502,19	23,561
502,40	24,843
502,61	25,763
502,82	27,333
503,02	28,355
503,23	29,337
503,44	30,310
503,65	31,567
503,86	32,824
504,06	34,305
504,27	35,210
504,48	35,704
504,69	36,688
504,89	37,899
505,10	38,529
505,31	39,117
505,52	39,714
505,72	40,260
505,93	41,605
506,14	41,670
506,35	42,188
506,55	43,427
506,76	43,210
506,97	44,063
507,18	44,836
507,38	45,034
507,59	45,650
507,80	46,281
508,01	46,908
508,21	46,762
508,42	47,576
508,63	47,915
508,84	48,239
509,04	47,559
509,25	47,911
509,46	48,324
509,67	48,595
509,87	47,913
510,08	48,547
510,29	49,830
510,49	49,025
510,70	49,731
510,91	48,751
511,12	49,409
511,32	49,833
511,53	49,635
511,74	49,431
511,94	49,339
512,15	49,779
512,36	49,559
512,57	49,113
512,77	49,849
512,98	49,191
513,19	49,900
513,39	49,735
513,60	49,102
513,81	49,228
514,01	48,834
514,22	49,970
514,43	49,156
514,64	49,663
514,84	48,956
515,05	48,691
515,26	49,636
515,46	49,445
515,67	50,291
515,88	50,565
516,08	50,235
516,29	50,916
516,50	51,307
516,70	52,166
516,91	52,241
517,12	54,077
517,32	55,281
517,53	57,345
517,74	57,760
517,95	59,726
518,15	61,126
518,36	63,624
518,57	64,855
518,77	66,969
518,98	69,842
519,19	71,155
519,39	74,059
519,60	76,034
519,80	78,437
520,01	78,903
520,22	80,522
520,42	82,005
520,63	83,056
520,84	83,863
521,04	84,682
521,25	86,359
521,46	86,535
521,66	85,893
521,87	87,268
522,08	86,522
522,28	87,938
522,49	87,419
522,70	87,428
522,90	87,414
523,11	87,166
523,31	86,701
523,52	88,211
523,73	87,727
523,93	87,873
524,14	87,775
524,35	87,754
524,55	87,578
524,76	86,714
524,97	87,728
525,17	85,770
525,38	86,187
525,58	85,392
525,79	85,999
526,00	85,430
526,20	85,207
526,41	86,017
526,61	85,844
526,82	85,323
527,03	85,098
527,23	85,737
527,44	85,842
527,64	86,622
527,85	87,629
528,06	86,285
528,26	88,375
528,47	88,094
528,68	88,963
528,88	88,727
529,09	89,878
529,29	89,585
529,50	90,050
529,70	91,074
529,91	90,655
530,12	91,855
530,32	92,411
530,53	92,659
530,73	94,003
530,94	93,549
531,15	92,303
531,35	92,871
531,56	93,485
531,76	92,563
531,97	93,963
532,17	92,929
532,38	93,885
532,59	93,744
532,79	93,888
533,00	94,261
533,20	94,245
533,41	95,164
533,61	94,591
533,82	95,231
534,03	94,362
534,23	94,848
534,44	95,293
534,64	95,939
534,85	95,825
535,05	97,366
535,26	96,373
535,46	97,280
535,67	95,815
535,88	97,241
536,08	96,542
536,29	96,613
536,49	96,941
536,70	96,655
536,90	96,737
537,11	97,605
537,31	97,131
537,52	97,209
537,72	96,616
537,93	96,506
538,13	96,185
538,34	96,050
538,55	95,255
538,75	96,742
538,96	96,480
539,16	95,274
539,37	96,441
539,57	95,795
539,78	95,471
539,98	95,003
540,19	96,102
540,39	96,522
540,60	96,155
540,80	96,384
541,01	95,298
541,21	95,570
541,42	94,915
541,62	95,757
541,83	94,469
542,03	94,907
542,24	95,121
542,44	94,640
542,65	94,249
542,85	94,614
543,06	94,921
543,26	94,796
543,47	94,639
543,67	95,044
543,88	93,986
544,08	95,223
544,29	94,562
544,49	95,668
544,70	94,172
544,90	94,251
545,11	93,142
545,31	93,395
545,52	94,340
545,72	93,028
545,93	93,675
546,13	93,909
546,34	92,540
546,54	92,171
546,75	91,714
546,95	92,511
547,15	91,995
547,36	92,167
547,56	92,912
547,77	91,908
547,97	93,389
548,18	93,155
548,38	90,713
548,59	92,416
548,79	91,877
549,00	91,231
549,20	92,022
549,41	91,736
549,61	91,590
549,81	90,912
550,02	90,716
550,22	90,243
550,43	88,543
550,63	87,822
550,84	87,722
551,04	86,111
551,25	85,280
551,45	83,975
551,65	82,116
551,86	81,710
552,06	80,500
552,27	78,713
552,47	77,333
552,68	75,129
552,88	73,869
553,08	72,858
553,29	70,427
553,49	67,550
553,70	64,827
553,90	62,101
554,11	60,069
554,31	56,636
554,51	54,122
554,72	50,823
554,92	47,352
555,13	44,444
555,33	40,951
555,53	37,421
555,74	34,770
555,94	32,023
556,15	29,330
556,35	26,170
556,56	24,106
556,76	21,566
556,96	19,466
557,17	17,276
557,37	15,084
557,58	13,450
557,78	11,978
557,98	10,447
558,19	9,147
558,39	7,850
558,59	7,064
558,80	6,215
559,00	5,192
559,21	4,836
559,41	3,921
559,61	3,701
559,82	3,282
560,02	2,786
560,23	2,752
560,43	2,254
560,63	2,108
560,84	1,852
561,04	1,723
561,24	1,673
561,45	1,481
561,65	1,378
561,85	1,059
562,06	1,207
562,26	0,824
562,47	0,765
562,67	0,685
562,87	0,602
563,08	0,679
563,28	0,608
563,48	0,519
563,69	0,542
563,89	0,369
564,09	0,526
564,30	0,356
564,50	0,334
564,70	0,439
564,91	0,365
565,11	0,167
565,31	0,300
565,52	0,377
565,72	0,347
565,92	0,393
566,13	0,399
566,33	0,332
566,53	0,293
566,74	0,405
566,94	0,340
567,14	0,475
567,35	0,026
567,55	0,444
567,75	0,081
567,96	0,233
568,16	0,256
568,36	0,254
568,57	0,281
568,77	0,252
568,97	0,349
569,18	0,461
569,38	0,453
569,58	0,318
569,79	0,379
569,99	0,374
570,19	0,179
570,39	0,173
570,60	0,297
570,80	0,148
571,00	0,261
571,21	0,319
571,41	0,369
571,61	0,254
571,82	0,111
572,02	0,379
572,22	0,096
572,42	0,245
572,63	0,205
572,83	0,458
573,03	0,160
573,24	0,232
573,44	0,329
573,64	0,327
573,84	0,399
574,05	0,256
574,25	0,210
574,45	0,466
574,66	0,324
574,86	0,275
575,06	0,289
575,26	0,243
575,47	0,529
575,67	0,168
575,87	0,235
576,07	0,323
576,28	0,312
576,48	0,360
576,68	0,245
576,88	0,401
577,09	0,281
577,29	0,247
577,49	0,173
577,69	0,311
577,90	0,201
578,10	0,164
578,30	0,241
578,50	0,250
578,71	0,291
578,91	0,254
579,11	0,537
579,31	0,195
579,52	0,235
579,72	0,210
579,92	0,270
580,12	0,414
580,33	0,561
580,53	0,298
580,73	0,515
580,93	0,379
581,13	0,375
581,34	0,332
581,54	0,385
581,74	0,405
581,94	0,589
582,15	0,434
582,35	0,427
582,55	0,518
582,75	0,443
582,95	0,807
583,16	0,540
583,36	0,802
583,56	0,868
583,76	0,953
583,96	1,108
584,17	1,373
584,37	1,440
584,57	1,692
584,77	1,801
584,97	2,117
585,18	2,414
585,38	2,971
585,58	3,430
585,78	3,585
585,98	4,241
586,19	5,196
586,39	5,611
586,59	6,318
586,79	6,933
586,99	7,468
587,20	8,415
587,40	9,494
587,60	10,046
587,80	11,086
588,00	11,903
588,20	12,819
588,41	13,795
588,61	14,480
588,81	15,671
589,01	16,861
589,21	17,414
589,41	18,576
589,62	19,094
589,82	20,144
590,02	20,773
590,22	21,719
590,42	22,363
590,62	23,316
590,83	23,774
591,03	24,971
591,23	25,354
591,43	26,389
591,63	26,718
591,83	27,139
592,03	28,133
592,24	28,317
592,44	29,106
592,64	30,118
592,84	31,079
593,04	31,123
593,24	31,813
593,44	32,744
593,65	33,483
593,85	34,081
594,05	34,502
594,25	35,699
594,45	35,901
594,65	36,494
594,85	37,219
595,06	38,266
595,26	37,777
595,46	38,957
595,66	38,973
595,86	39,871
596,06	39,688
596,26	39,984
596,46	40,356
596,66	41,492
596,87	41,777
597,07	41,269
597,27	41,633
597,47	41,847
597,67	42,190
597,87	43,096
598,07	42,360
598,27	42,355
598,47	43,034
598,67	43,187
598,88	43,548
599,08	43,229
599,28	43,934
599,48	43,404
599,68	44,578
599,88	43,856
600,08	43,945
600,28	44,431
600,48	44,668
600,68	44,879
600,88	44,929
601,09	45,464
601,29	45,310
601,49	45,596
601,69	45,451
601,89	45,493
602,09	45,491
602,29	44,984
602,49	44,991
602,69	45,292
602,89	45,841
603,09	45,066
603,29	45,166
603,49	45,229
603,69	45,680
603,90	45,799
604,10	45,794
604,30	46,075
604,50	46,407
604,70	46,367
604,90	46,579
605,10	46,860
605,30	46,805
605,50	47,748
605,70	48,723
605,90	48,985
606,10	48,921
606,30	50,163
606,50	50,086
606,70	50,821
606,90	52,154
607,10	52,573
607,30	53,581
607,50	55,221
607,70	55,616
607,90	56,552
608,10	58,064
608,30	59,447
608,50	59,963
608,70	62,240
608,90	62,869
609,11	64,306
609,31	65,365
609,51	66,649
609,71	67,997
609,91	69,529
610,11	71,070
610,31	72,012
610,51	72,997
610,71	73,734
610,91	75,028
611,11	76,546
611,31	77,111
611,51	78,035
611,71	78,322
611,91	79,019
612,11	78,028
612,31	79,764
612,51	79,579
612,71	80,222
612,91	79,572
613,11	80,410
613,31	79,807
613,51	79,313
613,71	78,212
613,91	79,436
614,11	79,611
614,31	79,073
614,50	79,105
614,70	79,773
614,90	79,011
615,10	78,416
615,30	78,958
615,50	78,780
615,70	78,810
615,90	78,589
616,10	78,542
616,30	79,366
616,50	79,700
616,70	79,321
616,90	79,820
617,10	80,143
617,30	80,422
617,50	80,504
617,70	81,104
617,90	80,155
618,10	81,076
618,30	81,052
618,50	80,865
618,70	81,023
618,90	81,149
619,10	80,859
619,30	80,746
619,49	80,558
619,69	80,267
619,89	80,572
620,09	79,290
620,29	79,319
620,49	79,005
620,69	80,187
620,89	79,879
621,09	80,331
621,29	80,838
621,49	80,231
621,69	80,033
621,89	80,708
622,09	80,206
622,29	80,547
622,48	80,484
622,68	80,667
622,88	81,718
623,08	80,495
623,28	81,240
623,48	81,734
623,68	80,759
623,88	81,822
624,08	80,756
624,28	81,623
624,48	81,593
624,67	81,664
624,87	81,986
625,07	80,952
625,27	82,540
625,47	82,245
625,67	82,462
625,87	81,963
626,07	83,066
626,27	82,457
626,47	83,029
626,66	82,799
626,86	83,641
627,06	83,369
627,26	84,120
627,46	83,953
627,66	83,652
627,86	84,275
628,06	83,513
628,25	84,531
628,45	84,829
628,65	84,764
628,85	85,655
629,05	85,782
629,25	84,993
629,45	85,349
629,65	85,311
629,84	85,531
630,04	86,931
630,24	87,027
630,44	86,747
630,64	87,028
630,84	87,529
631,04	88,648
631,23	89,654
631,43	88,574
631,63	89,968
631,83	91,121
632,03	91,017
632,23	91,709
632,42	92,686
632,62	92,655
632,82	92,811
633,02	92,965
633,22	93,262
633,42	94,106
633,62	93,878
633,81	93,918
634,01	94,374
634,21	92,848
634,41	93,453
634,61	92,778
634,80	92,408
635,00	91,609
635,20	91,159
635,40	91,542
635,60	88,724
635,80	88,142
635,99	87,587
636,19	85,281
636,39	84,069
636,59	82,699
636,79	80,620
636,98	79,645
637,18	77,212
637,38	76,707
637,58	73,577
637,78	73,033
637,97	71,084
638,17	69,336
638,37	66,976
638,57	66,333
638,77	64,680
638,96	62,520
639,16	60,683
639,36	59,335
639,56	57,152
639,76	55,358
639,95	53,947
640,15	53,049
640,35	50,836
640,55	50,499
640,75	48,889
640,94	46,699
641,14	45,274
641,34	42,800
641,54	41,324
641,73	40,249
641,93	39,326
642,13	36,468
642,33	35,704
642,53	33,468
642,72	31,355
642,92	29,914
643,12	27,886
643,32	26,110
643,51	23,541
643,71	22,067
643,91	20,619
644,11	18,975
644,30	17,415
644,50	15,330
644,70	14,187
644,90	12,405
645,09	10,786
645,29	9,963
645,49	8,880
645,69	8,060
645,88	6,700
646,08	5,783
646,28	5,228
646,48	4,387
646,67	3,512
646,87	3,956
647,07	3,306
647,26	2,790
647,46	2,470
647,66	1,991
647,86	1,902
648,05	1,813
648,25	1,995
648,45	0,938
648,65	1,211
648,84	0,982
649,04	0,741
649,24	0,743
649,43	0,550
649,63	0,890
649,83	0,774
650,03	0,433
650,22	1,023
650,42	0,622
650,62	0,444
650,81	0,806
651,01	0,508
651,21	0,456
651,40	0,728
651,60	0,561
651,80	0,563
652,00	0,558
652,19	0,590
652,39	0,471
652,59	0,642
652,78	0,534
652,98	0,170
653,18	0,262
653,37	0,849
653,57	0,607
653,77	0,371
653,96	-0,090
654,16	0,297
654,36	0,470
654,55	0,532
654,75	0,645
654,95	0,635
655,14	-0,117
655,34	0,356
655,54	0,454
655,73	0,204
655,93	0,471
656,13	0,178
656,32	0,094
656,52	0,769
656,72	0,009
656,91	0,171
657,11	0,371
657,31	-0,102
657,50	0,187
657,70	-0,008
657,90	0,435
658,09	0,272
658,29	0,347
658,49	0,357
658,68	0,765
658,88	0,411
659,07	0,690
659,27	0,492
659,47	0,120
659,66	0,068
659,86	0,247
660,06	0,201
660,25	0,110
660,45	0,492
660,64	0,235
660,84	0,034
661,04	0,586
661,23	0,226
661,43	0,276
661,63	0,436
661,82	-0,034
662,02	0,025
662,21	0,234
662,41	0,459
662,61	0,199
662,80	0,528
663,00	0,042
663,19	0,042
663,39	0,436
663,59	0,462
663,78	0,008
663,98	0,431
664,17	0,344
664,37	0,397
664,57	0,563
664,76	0,224
664,96	0,324
665,15	0,401
665,35	0,114
665,55	0,699
665,74	0,195
665,94	-0,269
666,13	-0,225
666,33	0,328
666,53	-0,056
666,72	-0,055
666,92	0,398
667,11	0,175
667,31	0,265
667,50	0,278
667,70	-0,093
667,90	0,232
668,09	0,116
668,29	0,377
668,48	0,152
668,68	0,100
668,87	0,091
669,07	0,258
669,26	0,075
669,46	-0,022
669,66	0,195
669,85	-0,023
670,05	-0,266
670,24	0,134
670,44	0,554
670,63	0,608
670,83	0,211
671,02	0,145
671,22	0,436
671,42	0,440
671,61	0,137
671,81	-0,036
672,00	0,035
672,20	0,161
672,39	0,131
672,59	0,110
672,78	0,409
672,98	-0,124
673,17	0,156
673,37	-0,034
673,56	0,323
673,76	0,504
673,95	0,060
674,15	0,180
674,34	0,305
674,54	0,098
674,73	0,013
674,93	0,142
675,13	0,153
675,32	0,296
675,52	0,095
675,71	0,291
675,91	0,295
676,10	0,180
676,30	-0,019
676,49	0,154
676,69	0,153
676,88	0,171
677,08	0,060
677,27	-0,114
677,47	0,201
677,66	0,264
677,86	0,170
678,05	0,117
678,24	-0,081
678,44	-0,098
678,63	0,131
678,83	0,057
679,02	0,170
679,22	0,062
679,41	0,276
679,61	0,247
679,80	0,350
680,00	0,087
680,19	-0,059
680,39	0,159
680,58	0,048
680,78	-0,042
680,97	0,084
681,17	-0,062
681,36	0,192
681,56	0,041
681,75	0,236
681,94	0,010
682,14	0,154
682,33	0,326
682,53	-0,024
682,72	0,252
682,92	0,106
683,11	0,191
683,31	-0,028
683,50	0,147
683,69	-0,037
683,89	-0,009
684,08	0,102
684,28	0,105
684,47	-0,073
684,67	-0,099
684,86	0,098
685,06	-0,013
685,25	-0,035
685,44	0,044
685,64	0,052
685,83	0,022
686,03	0,201
686,22	0,140
686,42	-0,013
686,61	0,121
686,80	0,196
687,00	0,033
687,19	0,212
687,39	0,012
687,58	-0,045
687,77	-0,020
687,97	0,040
688,16	-0,040
688,36	0,135
688,55	0,032
688,74	0,062
688,94	0,039
689,13	-0,039
689,33	-0,042
689,52	-0,095
689,71	0,019
689,91	-0,205
690,10	0,208
690,30	-0,015
690,49	-0,015
690,68	-0,044
690,88	-0,004
691,07	-0,126
691,27	0,209
691,46	0,173
691,65	0,133
691,85	0,018
692,04	-0,155
692,23	-0,104
692,43	0,000
692,62	0,076
692,82	0,051
693,01	0,058
693,20	-0,058
693,40	0,033
693,59	-0,070
693,78	-0,052
693,98	-0,041
694,17	0,004
694,36	-0,109
694,56	-0,104
694,75	-0,062
694,94	-0,067
695,14	0,076
695,33	0,077
695,53	-0,205
695,72	0,179
695,91	0,097
696,11	0,039
696,30	0,075
696,49	-0,018
696,69	0,175
696,88	0,277
697,07	-0,005
697,27	0,183
697,46	0,218
697,65	-0,156
697,85	0,000
698,04	-0,076
698,23	-0,408
698,43	0,257
698,62	-0,042
698,81	0,129
699,01	0,006
699,20	0,071
699,39	0,120
699,58	0,048
699,78	0,320
699,97	0,029
700,16	0,113
700,36	0,119
700,55	0,313
700,74	-0,025
700,94	0,299
701,13	0,168
701,32	0,505
701,52	0,366
701,71	0,439
701,90	0,069
702,09	0,359
702,29	0,073
702,48	-0,096
702,67	0,625
702,87	0,139
703,06	-0,339
703,25	0,539
703,44	0,665
703,64	0,155
703,83	0,754
704,02	-0,382
704,22	0,212
704,41	0,323
704,60	0,534
704,79	-0,061
704,99	0,605
705,18	0,401
705,37	0,552
705,56	0,034
705,76	1,025
705,95	0,252
706,14	0,420
706,33	0,167
706,53	1,059
706,72	0,879
706,91	0,206
707,11	0,060
707,30	0,190
707,49	1,268
707,68	1,337
707,88	-0,296
708,07	0,627
708,26	1,806
708,45	-0,024
708,64	0,634
708,84	0,376
709,03	0,673
709,22	0,977
709,41	0,863
709,61	0,167
709,80	1,677
709,99	0,913
710,18	-0,386
710,38	2,315
710,57	0,568
710,76	1,148
710,95	1,627
711,14	0,265
711,34	0,034
711,53	-0,067
711,72	0,918
711,91	1,199
712,11	1,877
712,30	1,655
712,49	0,962
712,68	-0,425
712,87	0,234
713,07	1,140
713,26	2,420
713,45	1,731
713,64	1,638
713,83	1,371
714,03	0,773
714,22	-3,007
714,41	1,609
714,60	2,805
714,79	-0,724
714,99	1,609
715,18	0,894
715,37	0,920
715,56	0,857
715,75	2,365
715,94	0,509
716,14	0,096
716,33	-0,155
716,52	0,988
716,71	2,710
716,90	-1,530
717,10	3,683
717,29	1,794
717,48	1,361
717,67	0,847
717,86	1,259
718,05	2,016
718,24	2,429
718,44	3,360
718,63	1,883
718,82	2,701
719,01	0,615
719,20	-1,983
719,39	3,206
719,59	1,457
719,78	-2,757
719,97	3,308
720,16	-0,350
720,35	3,520
720,54	1,680
720,73	0,880
720,93	2,855
721,12	2,017
721,31	2,697
721,50	3,267
721,69	1,856
721,88	0,219
722,07	1,440
722,27	-2,648
722,46	0,579
722,65	-0,683
722,84	3,078
723,03	1,566
723,22	2,033
723,41	0,565
723,60	-1,010
723,79	4,921
723,99	3,653
724,18	-0,791
724,37	-0,532
724,56	2,616
724,75	2,054
724,94	4,626
725,13	3,887
725,32	1,803
725,51	1,882
725,71	0,271
725,90	4,949
726,09	3,327
726,28	2,825
726,47	3,676
726,66	0,876
726,85	2,434
727,04	3,519
727,23	4,590
727,42	3,785
727,61	4,262
727,81	2,167
728,00	4,814
728,19	1,164
728,38	1,496
728,57	4,624
728,76	6,166
728,95	3,497
729,14	2,144
729,33	4,873
729,52	5,430
729,71	3,376
729,90	5,821
730,09	4,379
730,28	6,383
730,48	1,332
730,67	1,882
730,86	4,729
731,05	0,736
731,24	3,416
731,43	2,973
731,62	10,123
731,81	2,517
732,00	3,861
732,19	0,501
732,38	4,000
732,57	-0,754
732,76	-0,299
732,95	1,540
733,14	4,756
733,33	0,139
733,52	1,084
733,71	1,596
733,90	0,553
734,09	4,272
734,28	8,005
734,47	0,882
734,66	0,701
734,85	2,257
735,04	6,313
735,23	5,679
735,42	6,383
735,61	9,003
735,81	3,693
736,00	0,752
736,19	3,748
736,38	3,609
736,57	6,171
736,76	3,240
736,95	6,858
737,14	3,681
737,33	-0,312
737,52	-0,456
737,71	8,841
737,90	6,070
738,09	-3,276
738,28	3,734
738,47	9,646
738,66	4,746
738,85	2,992
739,04	3,865
739,22	-0,858
739,41	-6,806
739,60	7,540
739,79	2,842
739,98	16,196
740,17	9,291
740,36	8,712
740,55	2,914
740,74	2,974
740,93	4,047
741,12	11,592
741,31	-2,863
741,50	2,265
741,69	1,479
741,88	10,333
742,07	7,067
742,26	3,633
742,45	3,986
742,64	4,082
742,83	2,637
743,02	5,221
743,21	9,932
743,40	13,602
743,59	-0,982
743,78	-2,110
743,97	14,042
744,16	-0,862
744,34	1,653
744,53	2,155
744,72	12,527
744,91	3,696
745,10	1,379
745,29	-3,521
745,48	2,402
745,67	-0,667
745,86	3,734
746,05	3,803
746,24	7,543
746,43	3,855
746,62	11,045
746,81	3,318
747,00	13,750
747,18	6,591
747,37	6,136
747,56	4,348
747,75	-1,023
747,94	12,121
748,13	6,075
748,32	1,220
748,51	5,855
748,70	10,072
748,89	6,989
749,08	15,271
749,26	1,067
749,45	2,342
749,64	2,067
749,83	5,160
750,02	-3,753
750,21	3,906
750,40	-3,166
750,59	-6,649
750,78	7,711
750,96	1,496
751,15	6,434
751,34	12,039
751,53	11,944
751,72	12,601
751,91	7,874
752,10	25,634
752,29	-10,145
752,47	11,207
752,66	5,030
752,85	19,841
753,04	13,514
753,23	5,112
753,42	6,983
753,61	9,422
753,80	7,508
753,98	17,813
754,17	-0,283
754,36	9,804
754,55	3,257
754,74	20,270
754,93	22,258
755,12	6,154
755,30	-8,856
755,49	-2,346
755,68	11,781
755,87	11,263
756,06	18,732
756,25	-6,601
756,43	5,755
756,62	13,718
756,81	-3,922
757,00	21,154
757,19	5,828
757,38	8,795
757,56	12,162
757,75	-4,198
757,94	2,586
758,13	11,465
758,32	8,333
758,51	12,581
758,69	2,564
758,88	22,295
759,07	22,776
759,26	13,265
759,45	18,571
759,63	6,324
759,82	11,679
760,01	5,903
760,20	5,839
760,39	1,916
760,57	-9,871
760,76	9,924
760,95	1,149
761,14	10,000
761,33	26,953
761,51	17,778
761,70	18,621
761,89	22,093
762,08	-1,293
762,27	6,731
762,45	-6,132
762,64	7,080
762,83	26,766
763,02	8,651
763,21	13,732
763,39	7,692
763,58	24,898
763,77	28,723
763,96	-6,433
764,14	-2,075
764,33	30,075
764,52	8,929
764,71	10,837
764,89	26,351
765,08	23,221
765,27	4,455
765,46	5,909
765,65	9,645
765,83	11,429
766,02	6,593
766,21	29,536
766,40	26,047
766,58	25,792
766,77	12,429
766,96	26,154
767,15	18,841
767,33	14,904
767,52	5,687
767,71	30,000
767,90	8,333
768,08	35,622
768,27	17,674
768,46	18,095
768,64	28,155
768,83	35,676
769,02	11,429
769,21	28,646
769,39	24,161
769,58	17,500
769,77	21,196
769,96	49,669
770,14	23,282
770,33	21,390
770,52	8,974
770,70	20,297
770,89	2,551
771,08	31,250
771,27	23,711
771,45	31,792
771,64	19,079
771,83	44,086
772,01	1,527
772,20	27,273
772,39	15,924
772,57	31,250
772,76	46,207
772,95	10,152
773,14	45,349
773,32	-1,648
773,51	49,302
773,70	46,358
773,88	24,121
774,07	50,628
774,26	27,439
774,44	32,663
774,63	43,671
774,82	59,639
775,00	28,821
775,19	37,356
775,38	44,667
775,56	27,439
775,75	20,958
775,94	52,985
776,12	49,167
776,31	44,311
776,50	30,909
776,68	32,099
776,87	41,259
777,06	31,507
777,24	9,836
777,43	45,528
777,62	58,519
777,80	45,652
777,99	45,860
778,18	82,803
778,36	37,405
778,55	42,963
778,74	49,242
778,92	57,014
779,11	51,613
779,29	40,523
779,48	9,917
779,67	65,468
779,85	55,200
780,04	71,127
780,23	38,462
780,41	37,647
780,60	30,409
780,79	55,556
780,97	55,000
781,16	48,800
781,34	50,000
781,53	68,590
781,72	76,852
781,90	82,692
782,09	34,426
782,28	39,024
782,46	62,602
782,65	62,238
782,83	50,382
783,02	60,800
783,21	65,116
783,39	51,923
783,58	100,000
783,76	47,297
783,95	42,384
784,14	61,053
784,32	55,963
784,51	73,034
784,69	39,490
784,88	61,290
785,06	77,305
785,25	14,286
785,44	24,324
785,62	39,286
785,81	45,522
785,99	50,340
786,18	77,869
786,37	82,759
786,55	26,866
786,74	63,354
786,92	32,558
787,11	37,600
787,29	24,706
787,48	18,000
787,67	20,408
787,85	-1,563
788,04	56,164
788,22	27,778
788,41	57,895
788,59	62,585
788,78	84,028
788,96	89,524
789,15	40,164
789,34	46,341
789,52	49,254
789,71	28,571
789,89	57,895
790,08	52,941
790,26	69,841
790,45	23,358
790,63	10,526
790,82	21,774
791,00	30,159
791,19	47,143
791,38	9,589
791,56	10,526
791,75	59,459
791,93	10,784
792,12	31,061
792,30	32,237
792,49	-10,280
792,67	42,857
792,86	45,946
793,04	16,667
793,23	62,500
793,41	34,194
793,60	18,354
793,78	31,544
793,97	19,828
794,15	43,137
794,34	56,122
794,52	65,116
794,71	70,988
794,89	45,000
795,08	67,949
795,26	22,000
795,45	31,915
795,63	31,447
795,82	60,504
796,00	-3,077
796,19	88,312
796,37	29,661
796,56	11,111
796,74	70,312
796,93	38,655
797,11	68,333
797,30	70,229
797,48	23,077
797,67	41,129
797,85	36,957
798,04	40,541
798,22	32,374
798,41	63,559
798,59	34,286
798,77	33,333
798,96	33,065
799,14	65,741
799,33	77,876
799,51	17,822
799,70	74,725
799,88	13,761
800,07	71,223
800,25	67,176
800,44	59,406
800,62	49,640
800,80	38,636
800,99	25,641
801,17	35,862
801,36	13,542
801,54	42,636
801,73	12,879
801,91	65,169
802,10	80,000
802,28	51,181
802,46	58,871
802,65	47,682
802,83	31,405
803,02	57,653
803,20	91,525
803,39	37,615
803,57	29,577
803,75	42,857
803,94	86,486
804,12	36,646
804,31	29,808
804,49	45,806
804,67	3,604
804,86	39,130
805,04	17,829
805,23	64,964
805,41	71,569
805,59	33,735
805,78	20,000
805,96	64,458
806,15	27,200
806,33	-11,679
806,51	44,231
806,70	-15,116
806,88	26,364
807,07	34,426
807,25	23,478
807,43	36,667
807,62	69,531
807,80	35,976
807,99	30,216
808,17	17,361
808,35	36,792
808,54	26,816
808,72	28,205
808,90	44,715
809,09	32,847
809,27	78,641
809,46	61,682
809,64	34,104
809,82	45,517
810,01	33,871
810,19	-10,909
810,37	62,500
810,56	23,841
810,74	53,459
810,92	26,761
811,11	56,442
811,29	49,068
811,48	6,957
811,66	39,594
811,84	44,068
812,03	34,459
812,21	61,212
812,39	59,677
812,58	35,673
812,76	59,854
812,94	45,638
813,13	37,195
813,31	50,265
813,49	26,667
813,68	64,754
813,86	45,513
814,04	54,955
814,23	41,538
814,41	36,301
814,59	46,405
814,78	64,430
814,96	36,872
815,14	26,633
815,33	58,678
815,51	40,945
815,69	73,282
815,87	26,452
816,06	63,184
816,24	50,980
816,42	36,905
816,61	44,444
816,79	43,353
816,97	50,000
817,16	17,857
817,34	41,176
817,52	58,879
817,70	57,513
817,89	40,191
818,07	53,333
818,25	38,608
818,44	57,754
818,62	53,960
818,80	45,604
818,98	43,077
819,17	58,051
819,35	75,168
819,53	62,564
819,72	75,676
819,90	54,222
820,08	50,990
820,26	53,425
820,45	58,602
820,63	63,743
820,81	41,743
820,99	58,952
821,18	85,542
821,36	55,625
821,54	46,766
821,73	72,131
821,91	29,577
822,09	47,337
822,27	54,086
822,46	36,453
822,64	34,737
822,82	44,162
823,00	51,309
823,19	67,619
823,37	56,410
823,55	48,945
823,73	58,989
823,91	24,599
824,10	45,833
824,28	35,537
824,46	-4,605
824,64	50,185
824,83	36,967
825,01	32,353
825,19	66,376
825,37	59,314
825,56	53,435
825,74	42,857
825,92	49,027
826,10	36,123
826,28	42,435
826,47	58,366
826,65	49,640
826,83	39,035
827,01	54,724
827,19	58,915
827,38	42,697
827,56	53,500
827,74	11,374
827,92	36,098
828,10	33,681
828,29	35,055
828,47	45,620
828,65	33,203
828,83	48,945
829,01	49,099
829,20	36,923
829,38	40,574
829,56	49,495
829,74	41,538
829,92	50,202
830,10	30,043
830,29	44,828
830,47	50,746
830,65	30,962
830,83	37,755
831,01	50,673
831,20	37,226
831,38	38,111
831,56	41,404
831,74	48,136
831,92	37,729
832,10	48,101
832,29	48,057
832,47	50,709
832,65	45,574
832,83	32,595
833,01	35,952
833,19	40,909
833,37	44,681
833,56	44,940
833,74	50,164
833,92	44,932
834,10	43,976
834,28	43,554
834,46	44,509
834,64	52,000
834,83	21,813
835,01	36,031
835,19	47,518
835,37	48,305
835,55	35,411
835,73	33,333
835,91	38,938
836,09	31,250
836,28	24,390
836,46	41,888
836,64	37,795
836,82	33,242
837,00	29,393
837,18	40,333
837,36	55,425
837,54	37,432
837,72	27,342
837,91	31,728
838,09	29,697
838,27	30,052
838,45	47,945
838,63	28,732
838,81	33,435
838,99	31,830
839,17	31,056
839,35	35,214
839,53	28,571
839,72	42,308
839,90	28,444
840,08	34,353
840,26	30,446
840,44	30,025
840,62	25,337
840,80	44,835
840,98	38,926
841,16	27,174
841,34	34,423
841,52	24,783
841,70	25,558
841,89	26,196
842,07	32,184
842,25	37,945
842,43	29,440
842,61	52,246
842,79	31,066
842,97	32,952
843,15	32,985
843,33	35,391
843,51	43,696
843,69	33,203
843,87	42,742
844,05	33,693
844,23	34,096
844,41	38,171
844,59	37,759
844,77	31,340
844,95	43,290
845,13	40,421
845,31	37,525
845,50	41,408
845,68	39,400
845,86	38,008
846,04	32,162
846,22	39,123
846,40	33,884
846,58	42,231
846,76	39,757
846,94	34,394
847,12	39,808
847,30	45,966
847,48	38,616
847,66	41,152
847,84	34,099
848,02	31,434
848,20	44,256
848,38	41,429
848,56	43,088
848,74	39,526
848,92	39,175
849,10	40,845
849,28	41,890
849,46	29,760
849,64	42,481
849,82	38,179
850,00	30,523
850,18	35,024
850,36	34,106
850,54	45,527
850,72	32,710
850,90	34,681
851,08	41,890
851,26	35,922
851,44	45,396
851,62	40,659
851,80	37,651
851,98	33,032
852,16	42,900
852,34	32,394
852,52	35,503
852,70	37,300
852,87	29,840
853,05	32,235
853,23	32,448
853,41	38,028
853,59	35,209
853,77	35,029
853,95	37,316
854,13	34,233
854,31	29,784
854,49	38,959
854,67	44,023
854,85	38,679
855,03	43,165
855,21	44,312
855,39	44,083
855,57	42,297
855,75	40,637
855,93	40,169
856,11	39,300
856,28	41,411
856,46	46,184
856,64	42,468
856,82	46,986
857,00	39,975
857,18	41,854
857,36	45,522
857,54	47,503
857,72	43,648
857,90	49,197
858,08	44,792
858,26	45,422
858,44	49,104
858,61	44,520
858,79	48,510
858,97	44,835
859,15	48,475
859,33	50,409
859,51	49,480
859,69	49,886
859,87	51,753
860,05	44,895
860,23	53,761
860,40	44,481
860,58	41,620
860,76	46,522
860,94	47,329
861,12	50,569
861,30	48,434
861,48	52,844
861,66	51,879
861,84	44,048
862,01	42,743
862,19	46,545
862,37	44,529
862,55	44,534
862,73	44,318
862,91	46,717
863,09	48,152
863,27	41,796
863,44	47,029
863,62	49,182
863,80	49,366
863,98	44,936
864,16	47,053
864,34	49,800
864,52	49,955
864,69	49,096
864,87	51,020
865,05	44,526
865,23	42,626
865,41	43,849
865,59	44,246
865,76	44,969
865,94	48,250
866,12	44,783
866,30	47,757
866,48	48,981
866,66	42,957
866,83	44,816
867,01	46,690
867,19	41,715
867,37	46,379
867,55	44,728
867,73	42,407
867,90	45,285
868,08	45,576
868,26	44,926
868,44	43,144
868,62	45,964
868,79	46,482
868,97	40,689
869,15	48,195
869,33	40,700
869,51	42,846
869,69	41,418
869,86	44,891
870,04	41,348
870,22	40,929
870,40	44,145
870,57	42,381
870,75	39,269
870,93	37,720
871,11	39,524
871,29	35,474
871,46	36,692
871,64	39,153
871,82	39,216
872,00	40,286
872,18	35,852
872,35	38,218
872,53	39,381
872,71	36,669
872,89	37,500
873,06	32,681
873,24	36,903
873,42	33,883
873,60	36,575
873,77	32,987
873,95	35,491
874,13	34,211
874,31	35,282
874,49	36,538
874,66	38,686
874,84	37,772
875,02	36,937
875,20	37,288
875,37	36,060
875,55	37,126
875,73	35,779
875,91	37,655
876,08	37,712
876,26	39,729
876,44	35,132
876,61	37,295
876,79	36,748
876,97	32,033
877,15	36,697
877,32	33,155
877,50	37,292
877,68	38,953
877,86	36,126
878,03	35,805
878,21	37,100
878,39	37,918
878,56	36,067
878,74	35,407
878,92	36,034
879,10	37,131
879,27	37,619
879,45	37,520
879,63	35,053
879,80	34,174
879,98	37,392
880,16	36,972
880,34	36,397
880,51	39,446
880,69	34,135
880,87	36,845
881,04	36,668
881,22	37,126
881,40	34,166
881,57	33,935
881,75	38,832
881,93	34,368
882,10	37,693
882,28	33,489
882,46	36,248
882,63	37,209
882,81	34,039
882,99	31,177
883,16	37,392
883,34	34,017
883,52	34,605
883,69	34,254
883,87	33,706
884,05	34,169
884,22	31,980
884,40	30,842
884,58	32,522
884,75	30,589
884,93	33,648
885,11	35,466
885,28	34,045
885,46	32,615
885,64	31,871
885,81	27,291
885,99	31,110
886,17	30,125
886,34	29,431
886,52	30,886
886,70	29,509
886,87	32,053
887,05	29,045
887,22	28,609
887,40	31,425
887,58	29,001
887,75	28,755
887,93	30,538
888,11	27,238
888,28	29,379
888,46	27,176
888,63	28,225
888,81	27,757
888,99	27,749
889,16	29,313
889,34	29,403
889,51	27,417
889,69	30,948
889,87	28,978
890,04	28,387
890,22	28,110
890,39	27,142
890,57	31,164
890,75	30,171
890,92	30,802
891,10	29,849
891,27	32,009
891,45	30,485
891,63	31,082
891,80	30,792
891,98	29,680
892,15	30,505
892,33	31,436
892,51	30,278
892,68	30,656
892,86	33,447
893,03	32,868
893,21	34,029
893,38	32,703
893,56	36,829
893,74	36,256
893,91	35,318
894,09	37,003
894,26	36,986
894,44	38,405
894,61	37,151
894,79	36,592
894,96	39,497
895,14	38,210
895,32	38,598
895,49	40,137
895,67	40,381
895,84	39,310
896,02	40,542
896,19	40,187
896,37	39,150
896,54	41,659
896,72	41,521
896,89	41,581
897,07	40,241
897,25	42,473
897,42	40,898
897,60	42,596
897,77	41,190
897,95	41,451
898,12	43,667
898,30	43,731
898,47	42,503
898,65	42,511
898,82	42,550
899,00	42,481
899,17	43,358
899,35	42,172
899,52	43,349
899,70	43,559
899,87	42,999
900,05	43,028
900,22	43,832
900,40	39,931
900,57	41,503
900,75	40,299
900,92	40,521
901,10	40,463
901,27	40,622
901,45	40,584
901,62	40,722
901,80	43,035
901,97	40,951
902,15	41,258
902,32	42,269
902,50	40,815
902,67	39,606
902,85	39,990
903,02	39,134
903,20	40,631
903,37	40,428
903,54	38,454
903,72	40,844
903,89	42,046
904,07	38,682
904,24	40,672
904,42	40,155
904,59	40,692
904,77	41,095
904,94	40,688
905,12	40,421
905,29	39,637
905,47	41,368
905,64	41,464
905,81	41,463
905,99	39,559
906,16	40,840
906,34	42,306
906,51	40,448
906,69	40,194
906,86	40,759
907,03	40,019
907,21	38,436
907,38	37,473
907,56	38,495
907,73	38,305
907,91	38,902
908,08	36,789
908,25	36,898
908,43	37,591
908,60	38,966
908,78	37,727
908,95	38,261
909,13	34,923
909,30	34,440
909,47	34,884
909,65	34,951
909,82	33,649
910,00	34,473
910,17	33,929
910,34	34,133
910,52	33,311
910,69	32,362
910,87	34,795
911,04	31,198
911,21	31,977
911,39	31,479
911,56	32,260
911,73	33,232
911,91	30,987
912,08	31,631
912,26	30,168
912,43	31,469
912,60	31,514
912,78	29,715
912,95	29,952
913,13	29,232
913,30	28,935
913,47	29,454
913,65	28,785
913,82	29,178
913,99	29,156
914,17	28,963
914,34	28,406
914,51	30,158
914,69	28,117
914,86	29,532
915,03	28,917
915,21	28,623
915,38	29,773
915,56	30,978
915,73	29,121
915,90	30,311
916,08	30,315
916,25	30,471
916,42	31,300
916,60	30,374
916,77	31,922
916,94	30,279
917,12	31,480
917,29	30,953
917,46	30,602
917,64	31,044
917,81	31,643
917,98	33,196
918,16	32,633
918,33	33,150
918,50	32,138
918,67	32,305
918,85	31,911
919,02	33,283
919,19	32,987
919,37	32,938
919,54	33,127
919,71	33,733
919,89	33,730
920,06	34,018
920,23	33,915
920,41	32,004
920,58	32,066
920,75	33,681
920,92	32,611
921,10	34,620
921,27	33,183
921,44	32,120
921,62	32,694
921,79	32,908
921,96	32,770
922,13	32,391
922,31	33,163
922,48	32,033
922,65	32,128
922,82	32,730
923,00	33,182
923,17	31,912
923,34	32,542
923,52	31,480
923,69	32,042
923,86	31,345
924,03	31,616
924,21	31,752
924,38	30,996
924,55	31,116
924,72	31,360
924,90	30,112
925,07	30,310
925,24	31,219
925,41	31,068
925,59	32,188
925,76	29,679
925,93	30,874
926,10	30,717
926,28	29,877
926,45	31,029
926,62	30,315
926,79	30,077
926,96	30,399
927,14	30,153
927,31	30,293
927,48	30,525
927,65	30,169
927,83	30,881
928,00	28,893
928,17	27,783
928,34	29,738
928,51	29,579
928,69	29,695
928,86	28,807
929,03	29,817
929,20	29,565
929,37	28,866
929,55	30,251
929,72	29,412
929,89	28,828
930,06	29,203
930,23	29,652
930,41	30,095
930,58	29,470
930,75	28,211
930,92	29,324
931,09	29,943
931,27	29,579
931,44	30,158
931,61	29,545
931,78	30,266
931,95	30,439
932,12	29,510
932,30	30,095
932,47	30,138
932,64	29,494
932,81	29,344
932,98	31,328
933,16	30,174
933,33	31,027
933,50	30,013
933,67	30,365
933,84	31,586
934,01	31,124
934,18	31,941
934,36	31,197
934,53	31,642
934,70	31,787
934,87	31,815
935,04	32,174
935,21	32,085
935,38	33,150
935,56	32,490
935,73	32,951
935,90	32,596
936,07	32,956
936,24	33,244
936,41	32,238
936,58	33,185
936,76	31,866
936,93	32,341
937,10	31,886
937,27	33,961
937,44	32,783
937,61	33,559
937,78	33,759
937,95	34,020
938,13	34,453
938,30	34,528
938,47	33,213
938,64	34,289
938,81	34,336
938,98	35,111
939,15	35,694
939,32	35,767
939,49	36,134
939,66	34,838
939,84	35,044
940,01	36,017
940,18	35,390
940,35	35,112
940,52	35,622
940,69	36,043
940,86	37,282
941,03	36,943
941,20	36,572
941,37	36,575
941,54	36,108
941,71	36,632
941,89	36,565
942,06	37,159
942,23	36,748
942,40	36,430
942,57	36,454
942,74	36,915
942,91	38,368
943,08	37,804
943,25	39,584
943,42	38,529
943,59	37,725
943,76	39,943
943,93	38,156
944,10	38,931
944,27	38,651
944,44	38,044
944,61	38,348
944,79	38,747
944,96	38,541
945,13	39,930
945,30	38,546
945,47	39,139
945,64	38,648
945,81	38,827
945,98	39,934
946,15	39,456
946,32	38,674
946,49	40,981
946,66	39,371
946,83	40,274
947,00	40,529
947,17	40,622
947,34	40,818
947,51	43,223
947,68	40,722
947,85	41,794
948,02	41,662
948,19	42,737
948,36	43,832
948,53	41,698
948,70	42,805
948,87	42,817
949,04	43,577
949,21	42,724
949,38	43,665
949,55	41,854
949,72	44,054
949,89	42,793
950,06	44,619
950,23	45,251
950,40	43,424
950,57	43,471
950,74	46,074
950,91	46,645
951,08	46,740
951,25	44,562
951,42	43,248
951,59	44,081
951,76	44,966
951,93	47,957
952,10	45,895
952,27	47,463
952,44	47,655
952,61	45,935
952,77	45,759
952,94	47,895
953,11	46,497
953,28	48,547
953,45	48,116
953,62	48,540
953,79	46,248
953,96	46,604
954,13	45,495
954,30	45,428
954,47	46,296
954,64	49,611
954,81	44,177
954,98	48,209
955,15	47,321
955,32	49,158
955,49	46,613
955,65	50,236
955,82	49,672
955,99	48,731
956,16	44,039
956,33	48,254
956,50	47,731
956,67	47,249
956,84	45,829
957,01	48,899
957,18	47,965
957,35	49,474
957,52	45,955
957,68	45,326
957,85	44,774
958,02	47,600
958,19	44,118
958,36	45,301
958,53	46,107
958,70	45,606
958,87	46,658
959,04	51,117
959,21	48,162
959,37	44,452
959,54	46,465
959,71	47,486
959,88	47,300
960,05	46,183
960,22	48,210
960,39	47,660
960,56	45,776
960,72	46,009
960,89	52,093
961,06	44,581
961,23	41,310
961,40	48,175
961,57	38,908
961,74	44,621
961,90	46,931
962,07	40,159
962,24	51,258
962,41	45,357
962,58	48,049
962,75	48,639
962,92	39,205
963,08	45,300
963,25	42,536
963,42	49,020
963,59	47,045
963,76	53,213
963,93	39,821
964,10	44,072
964,26	38,585
964,43	47,131
964,60	43,639
964,77	47,014
964,94	52,923
965,10	48,693
965,27	39,696
965,44	51,833
965,61	44,402
965,78	50,088
965,95	44,940
966,11	51,566
966,28	46,154
966,45	43,238
966,62	48,291
966,79	54,472
966,95	38,578
967,12	47,608
967,29	54,206
967,46	47,826
967,63	47,407
967,79	42,663
967,96	44,094
968,13	53,292
968,30	58,470
968,47	58,839
968,63	45,858
968,80	56,897
968,97	66,286
969,14	44,543
969,31	48,397
969,47	40,063
969,64	63,036
969,81	55,088
969,98	52,047
970,14	53,333
970,31	46,595
970,48	61,566
970,65	69,366
970,81	46,939
970,98	62,921
971,15	76,498
971,32	40,678
971,48	54,044
971,65	53,361
971,82	67,347
971,99	64,179
972,15	66,316
972,32	59,671
972,49	41,631
972,66	39,823
972,82	56,436
972,99	68,085
973,16	55,155
973,33	63,810
973,49	68,333
973,66	75,630
973,83	89,796
974,00	89,344
974,16	66,038
974,33	75,000
974,50	63,194
974,67	56,842
974,83	57,627
975,00	78,261
975,17	90,476
975,33	46,377
975,50	56,970
975,67	66,964
975,84	75,177
976,00	57,692
976,17	116,176
976,34	36,170
976,50	47,826
976,67	51,724
976,84	112,821
977,00	68,421
977,17	74,016
977,34	95,699
977,50	115,957
977,67	49,123
977,84	66,364
978,01	49,425
978,17	97,436
978,34	61,458
978,51	113,636
978,67	84,615
978,84	89,583
979,01	90,769
979,17	122,727
979,34	137,500
979,51	59,615
979,67	83,750
979,84	88,095
980,01	60,656
980,17	70,588
980,34	130,435
980,51	195,455
980,67	112,000
980,84	81,034
981,01	92,308
981,17	172,000
981,34	200,000
981,50	97,059
981,67	186,207
981,84	131,034
982,00	91,304
982,17	318,182
982,34	84,615
982,50	326,316
982,67	92,593
982,84	85,714
983,00	148,000
983,17	233,333
983,33	111,290
983,50	76,087
983,67	171,739
983,83	216,667
984,00	159,375
984,17	215,000
984,33	141,892
984,50	50,000
984,66	250,000
984,83	76,744
985,00	178,689
985,16	76,923
985,33	193,750
985,49	351,724
985,66	166,667
985,83	70,175
985,99	88,288
986,16	224,000
986,32	128,986
986,49	183,333
986,66	-0,000
986,82	119,298
986,99	171,429
987,15	134,483
987,32	68,519
987,49	75,000
987,65	240,000
987,82	41,176
987,98	41,176
988,15	257,143
988,31	52,000
988,48	-29,167
988,65	200,000
988,81	136,957
988,98	183,333
989,14	151,020
989,31	236,667
989,47	114,634
989,64	88,571
989,80	160,000
989,97	144,118
990,14	113,043
990,30	160,000
990,47	192,683
990,63	334,783
990,80	163,636
990,96	383,333
991,13	133,333
991,29	145,098
991,46	221,569
991,62	129,412
991,79	121,053
991,95	300,000
992,12	132,558
992,29	28,000
992,45	23,077
992,62	-420,000
992,78	-59,259
992,95	200,000
993,11	293,333
993,28	54,321
993,44	243,478
993,61	2000,000
993,77	100,000
993,94	74,419
994,10	157,143
994,27	196,000
994,43	200,000
994,60	-136,364
994,76	263,158
994,93	318,182
995,09	-56,757
995,26	104,938
995,42	132,203
995,59	314,286
995,75	206,250
995,92	313,636
996,08	308,333
996,25	77,778
996,41	77,083
996,58	175,676
996,74	520,000
996,91	438,889
997,07	169,231
997,23	246,809
997,40	966,667
997,56	186,667
997,73	0,000
997,89	244,444
998,06	-29,412
998,22	-500,000
998,39	256,522
998,55	83,333
998,72	140,000
998,88	2466,667
999,05	23,077
999,21	300,000
999,37	-2400,000
999,54	-2100,000
999,70	400,000
999,87	-112,500
1000,03	128,125
1000,20	-100,000
1000,36	4300,000
1000,52	305,556
1000,69	134,091
1000,85	155,172
1001,02	98,462
1001,18	184,091
1001,35	-37,778
1001,51	-171,429
1001,67	-30,667
1001,84	383,333
1002,00	70,000
1002,17	27,273
1002,33	-217,647
1002,50	55,556
1002,66	2600,000
1002,82	131,429
1002,99	-92,308
1003,15	221,739
1003,32	161,290
1003,48	-860,000
1003,64	65,000
1003,81	-110,714
1003,97	313,636
1004,14	2133,333
1004,30	-1200,000
1004,46	450,000
1004,63	273,684
1004,79	-233,333
1004,95	23,529
1005,12	-557,143
1005,28	148,276
1005,45	196,154
1005,61	-2400,000
1005,77	142,105
1005,94	174,194
1006,10	-4300,000
1006,26	141,071
1006,43	755,556
1006,59	-88,889
1006,76	-20,000
1006,92	320,000
1007,08	590,000
1007,25	69,444
1007,41	-666,667
1007,57	-250,000
1007,74	-130,435
1007,90	-1260,000
1008,06	145,714
1008,23	131,481
1008,39	1900,000
1008,55	-428,571
1008,72	275,000
1008,88	216,000
1009,04	268,000
1009,21	-82,353
1009,37	-350,000
1009,53	-0,000
1009,70	-330,769
1009,86	102,273
1010,02	192,308
1010,19	0,000
1010,35	225,000
1010,51	433,333
1010,68	1400,000
1010,84	-1833,333
1011,00	120,000
1011,17	-740,000
1011,33	382,353
1011,49	171,875
1011,66	217,391
1011,82	-98,113
1011,98	-29,545
1012,14	89,394
1012,31	-480,000
1012,47	566,667
1012,63	644,444
1012,80	160,000
1012,96	-145,455
1013,12	32,558
1013,29	165,789
1013,45	84,444
1013,61	-166,667
1013,77	283,333
1013,94	140,625
1014,10	63,636
1014,26	1650,000
1014,43	-109,091
1014,59	-362,500
1014,75	1450,000
1014,91	1500,000
1015,08	-66,667
1015,24	-2000,000
1015,40	-317,647
1015,56	288,889
1015,73	257,778
1015,89	-33,333
1016,05	580,000
1016,21	-244,444
1016,38	1100,000
1016,54	-384,615
1016,70	-22,222
1016,86	127,273
1017,03	97,436
1017,19	139,130
1017,35	-307,692
1017,51	71,429
1017,68	518,182
1017,84	6800,000
1018,00	357,143
1018,16	125,000
1018,33	-242,857
1018,49	146,341
1018,65	-105,882
1018,81	-25,000
1018,97	-1000,000
1019,14	116,667
1019,30	253,125
1019,46	877,778
1019,62	326,667
1019,79	241,667
1019,95	70,833
1020,11	-542,857
1020,27	750,000
1020,43	-100,000
1020,60	-100,000
1020,76	-127,778
1020,92	250,000
1021,08	4000,000
1021,24	385,000
1021,41	38,235
1021,57	390,909
1021,73	-1575,000
1021,89	-350,000
1022,05	775,000
1022,21	115,385
1022,38	-0,000
1022,54	1150,000
1022,70	-263,636
1022,86	250,000
1023,02	-100,000
1023,19	-488,889
1023,35	180,645
1023,51	110,714
1023,67	220,833
1023,83	1633,333
1023,99	238,889
1024,16	104,762
1024,32	-16,000
1024,48	163,636
1024,64	288,889
1024,80	-30,556
1024,96	79,310
1025,12	-207,143
1025,29	153,571
1025,45	111,111
1025,61	-1933,333
1025,77	-138,710
1025,93	390,000
1026,09	146,341
1026,26	115,789
1026,42	-12,500
1026,58	-21,739
1026,74	158,333
1026,90	450,000
1027,06	56,410
1027,22	-91,304
1027,38	113,043
1027,55	1233,333
1027,71	180,000
1027,87	-575,000
1028,03	-325,000
1028,19	-264,706
1028,35	-757,143
1028,51	216,000
1028,67	50,000
1028,83	164,444
1029,00	500,000
1029,16	54,054
1029,32	132,143
1029,48	-114,286
1029,64	-546,154
1029,80	140,909
1029,96	233,333
1030,12	368,421
1030,28	-2000,000
1030,44	1080,000
1030,61	240,909
1030,77	-916,667
1030,93	-168,750
1031,09	1150,000
1031,25	0,000
1031,41	500,000
1031,57	-975,000
1031,73	-1475,000
1031,89	-272,727
1032,05	37,209
1032,21	-0,000
1032,37	91,071
1032,53	-79,310
1032,69	273,077
1032,86	-433,333
1033,02	-44,444
1033,18	175,000
1033,34	-1750,000
1033,50	112,500
1033,66	-204,000
1033,82	555,556
1033,98	2150,000
1034,14	-221,429
1034,30	-86,667
1034,46	158,824
1034,62	141,026
1034,78	-321,739
1034,94	306,452
1035,10	-523,077
1035,26	833,333
1035,42	-16,667
1035,58	345,833
1035,74	117,568
1035,90	350,000
1036,06	96,078
1036,22	133,333
1036,38	-87,500
1036,54	-0,000
1036,70	241,935
1036,86	155,000
1037,02	-128,571
1037,18	-352,941
1037,34	-33,333
1037,50	-260,000
1037,66	-6800,000
1037,82	252,381
1037,98	737,500
1038,14	-875,000
1038,30	206,897
1038,46	-571,429
1038,62	755,556
1038,78	-328,571
1038,94	440,000
1039,10	236,000
1039,26	-79,167
1039,42	195,652
1039,58	-825,000
1039,74	2200,000
1039,90	-358,333
1040,06	26,154
>>>>>End Processed Spectral Data<<<<<
