SpectraSuite Data File
++++++++++++++++++++++++++++++++++++
Date: Tue Jan 31 19:18:13 EET 2017
User: optolab
Dark Spectrum Present: Yes
Reference Spectrum Present: Yes
Number of Sampled Component Spectra: 1
Spectrometers: USB4C02475
Integration Time (usec): 100000 (USB4C02475)
Spectra Averaged: 1 (USB4C02475)
Boxcar Smoothing: 0 (USB4C02475)
Correct for Electrical Dark: No (USB4C02475)
Strobe/Lamp Enabled: No (USB4C02475)
Correct for Detector Non-linearity: No (USB4C02475)
Correct for Stray Light: No (USB4C02475)
Number of Pixels in Processed Spectrum: 3648
>>>>>Begin Processed Spectral Data<<<<<
344,91	176,923
345,13	176,923
345,35	176,923
345,57	0,000
345,79	-66,667
346,00	180,000
346,22	-80,556
346,44	176,923
346,66	1675,000
346,87	-400,000
347,09	100,000
347,31	-1366,667
347,53	-233,333
347,74	-338,462
347,96	314,286
348,18	2366,667
348,40	-135,714
348,61	191,429
348,83	95,122
349,05	110,714
349,27	300,000
349,48	76,923
349,70	229,412
349,92	187,805
350,14	544,444
350,35	175,610
350,57	111,429
350,79	170,588
351,01	523,077
351,22	-150,000
351,44	-600,000
351,66	184,615
351,87	97,436
352,09	260,606
352,31	350,000
352,53	157,778
352,74	214,286
352,96	146,512
353,18	129,630
353,40	110,870
353,61	151,667
353,83	816,667
354,05	96,970
354,26	203,571
354,48	-875,000
354,70	209,756
354,92	57,576
355,13	105,882
355,35	0,000
355,57	2,778
355,78	223,529
356,00	108,824
356,22	355,556
356,44	-338,462
356,65	81,818
356,87	192,857
357,09	140,000
357,30	87,302
357,52	123,214
357,74	-2200,000
357,95	1040,000
358,17	616,667
358,39	211,765
358,60	550,000
358,82	358,824
359,04	-143,750
359,26	128,125
359,47	56,522
359,69	2,703
359,91	265,385
360,12	307,692
360,34	99,029
360,56	196,552
360,77	757,143
360,99	98,077
361,21	283,333
361,42	81,250
361,64	161,538
361,86	191,667
362,07	130,769
362,29	55,882
362,51	150,000
362,72	82,432
362,94	261,905
363,16	155,000
363,37	6,452
363,59	93,103
363,81	22,222
364,02	58,824
364,24	221,739
364,46	237,838
364,67	228,889
364,89	585,000
365,11	3500,000
365,32	142,169
365,54	385,714
365,76	91,379
365,97	385,714
366,19	800,000
366,41	230,769
366,62	228,947
366,84	173,684
367,05	86,154
367,27	-500,000
367,49	197,561
367,70	850,000
367,92	116,129
368,14	3250,000
368,35	116,901
368,57	105,128
368,79	29,412
369,00	0,000
369,22	291,667
369,43	268,182
369,65	126,866
369,87	88,732
370,08	1042,857
370,30	300,000
370,51	55,556
370,73	82,692
370,95	228,571
371,16	850,000
371,38	143,182
371,60	142,308
371,81	205,405
372,03	405,263
372,24	672,727
372,46	51,220
372,68	64,063
372,89	117,143
373,11	190,476
373,32	420,000
373,54	108,000
373,76	142,553
373,97	72,043
374,19	145,946
374,40	150,000
374,62	-1066,667
374,84	252,000
375,05	164,865
375,27	152,830
375,48	69,767
375,70	50,000
375,92	266,667
376,13	137,778
376,35	1733,333
376,56	64,000
376,78	39,583
376,99	105,195
377,21	-7600,000
377,43	60,417
377,64	184,211
377,86	221,739
378,07	133,333
378,29	-96,774
378,51	166,667
378,72	133,333
378,94	72,059
379,15	234,286
379,37	91,071
379,58	116,071
379,80	150,000
380,01	412,500
380,23	136,842
380,45	101,923
380,66	211,111
380,88	-350,000
381,09	117,143
381,31	110,145
381,52	152,778
381,74	100,000
381,95	214,634
382,17	83,333
382,39	200,000
382,60	446,154
382,82	171,429
383,03	117,308
383,25	100,000
383,46	7,317
383,68	98,214
383,89	580,000
384,11	77,273
384,32	-225,000
384,54	131,111
384,76	3200,000
384,97	139,506
385,19	58,333
385,40	75,000
385,62	183,333
385,83	75,676
386,05	148,837
386,26	62,162
386,48	56,000
386,69	56,604
386,91	141,176
387,12	225,000
387,34	111,765
387,55	111,364
387,77	76,190
387,98	-442,857
388,20	245,161
388,41	105,128
388,63	183,721
388,84	23,077
389,06	79,487
389,27	135,714
389,49	34,375
389,70	76,190
389,92	60,937
390,13	-95,652
390,35	56,000
390,56	157,576
390,78	164,516
390,99	2033,333
391,21	144,643
391,42	93,443
391,64	59,259
391,85	93,333
392,07	74,000
392,28	77,500
392,50	121,053
392,71	74,074
392,93	221,622
393,14	63,158
393,36	231,250
393,57	109,804
393,79	113,636
394,00	149,091
394,22	-25,000
394,43	152,500
394,65	1500,000
394,86	110,606
395,08	76,712
395,29	204,651
395,50	93,750
395,72	72,222
395,93	152,083
396,15	94,366
396,36	24,528
396,58	114,815
396,79	110,909
397,01	120,482
397,22	294,444
397,44	-440,000
397,65	67,105
397,87	41,026
398,08	80,000
398,29	181,250
398,51	191,667
398,72	62,000
398,94	81,081
399,15	6,122
399,37	94,872
399,58	229,032
399,80	25,000
400,01	1,449
400,22	97,959
400,44	526,667
400,65	246,667
400,87	109,836
401,08	67,105
401,30	92,000
401,51	57,576
401,72	39,535
401,94	140,323
402,15	94,915
402,37	245,455
402,58	22,222
402,80	78,571
403,01	79,787
403,22	73,333
403,44	113,750
403,65	-245,455
403,87	82,051
404,08	63,077
404,30	-58,621
404,51	51,786
404,72	85,366
404,94	202,857
405,15	43,478
405,37	105,556
405,58	104,545
405,79	69,620
406,01	82,243
406,22	34,146
406,44	60,204
406,65	31,507
406,86	18,182
407,08	155,556
407,29	40,449
407,51	85,714
407,72	81,481
407,93	67,785
408,15	97,297
408,36	55,556
408,58	65,854
408,79	88,172
409,00	68,182
409,22	86,813
409,43	60,674
409,64	26,316
409,86	65,248
410,07	76,852
410,29	103,371
410,50	76,712
410,71	51,163
410,93	62,353
411,14	79,687
411,35	118,103
411,57	48,544
411,78	60,664
412,00	69,492
412,21	60,694
412,42	56,863
412,64	52,778
412,85	64,249
413,06	58,049
413,28	72,571
413,49	52,273
413,70	63,177
413,92	50,936
414,13	54,440
414,34	48,402
414,56	55,806
414,77	56,439
414,98	42,687
415,20	54,242
415,41	49,216
415,63	32,012
415,84	45,092
416,05	48,544
416,27	50,725
416,48	42,000
416,69	46,377
416,91	52,846
417,12	46,224
417,33	46,081
417,55	34,581
417,76	47,773
417,97	60,239
418,19	46,864
418,40	60,254
418,61	45,626
418,83	47,312
419,04	46,341
419,25	50,490
419,46	52,830
419,68	60,200
419,89	54,451
420,10	45,854
420,32	54,246
420,53	58,720
420,74	50,590
420,96	49,141
421,17	54,345
421,38	54,995
421,60	47,548
421,81	48,387
422,02	50,404
422,23	55,812
422,45	50,259
422,66	49,746
422,87	48,184
423,09	49,688
423,30	47,398
423,51	43,437
423,73	49,125
423,94	46,893
424,15	43,393
424,36	46,721
424,58	47,508
424,79	46,744
425,00	48,483
425,22	51,808
425,43	55,081
425,64	56,304
425,85	59,014
426,07	54,500
426,28	61,399
426,49	61,861
426,71	61,335
426,92	64,687
427,13	61,629
427,34	63,960
427,56	65,946
427,77	66,187
427,98	68,415
428,19	66,362
428,41	71,314
428,62	72,285
428,83	74,528
429,04	74,058
429,26	74,928
429,47	74,062
429,68	72,128
429,89	73,529
430,11	73,376
430,32	70,649
430,53	73,059
430,74	70,450
430,96	69,654
431,17	71,241
431,38	66,519
431,59	66,399
431,81	65,345
432,02	65,086
432,23	62,519
432,44	63,133
432,66	61,776
432,87	61,968
433,08	61,726
433,29	63,999
433,51	63,189
433,72	62,893
433,93	63,330
434,14	63,321
434,35	63,101
434,57	63,834
434,78	62,940
434,99	64,725
435,20	65,752
435,42	65,631
435,63	64,699
435,84	64,557
436,05	65,102
436,26	65,690
436,48	65,431
436,69	63,702
436,90	63,021
437,11	63,045
437,32	62,921
437,54	61,711
437,75	61,701
437,96	62,345
438,17	62,164
438,38	62,945
438,60	63,835
438,81	64,672
439,02	64,865
439,23	65,597
439,44	68,446
439,66	69,160
439,87	70,357
440,08	68,926
440,29	68,645
440,50	65,341
440,72	65,485
440,93	63,081
441,14	60,880
441,35	58,961
441,56	55,751
441,77	52,720
441,99	50,796
442,20	49,314
442,41	48,114
442,62	46,781
442,83	46,141
443,04	47,766
443,26	48,344
443,47	49,954
443,68	51,181
443,89	52,802
444,10	54,810
444,31	58,361
444,53	60,032
444,74	62,588
444,95	63,349
445,16	64,930
445,37	64,563
445,58	65,395
445,80	64,979
446,01	63,913
446,22	63,850
446,43	62,545
446,64	60,461
446,85	58,638
447,06	59,087
447,28	58,897
447,49	57,076
447,70	56,498
447,91	55,557
448,12	54,976
448,33	54,221
448,54	52,634
448,76	51,816
448,97	50,500
449,18	48,735
449,39	46,225
449,60	43,280
449,81	40,910
450,02	38,035
450,23	34,828
450,45	31,838
450,66	29,145
450,87	25,987
451,08	22,704
451,29	20,558
451,50	18,443
451,71	16,397
451,92	14,226
452,13	12,474
452,35	11,322
452,56	9,412
452,77	7,769
452,98	6,817
453,19	6,182
453,40	5,216
453,61	4,712
453,82	4,227
454,03	3,406
454,25	3,094
454,46	2,549
454,67	2,562
454,88	2,323
455,09	1,310
455,30	1,583
455,51	1,637
455,72	1,381
455,93	1,309
456,14	1,099
456,35	0,650
456,56	1,015
456,78	0,781
456,99	0,557
457,20	0,455
457,41	0,809
457,62	0,265
457,83	0,529
458,04	0,376
458,25	0,439
458,46	0,289
458,67	0,734
458,88	0,289
459,09	0,070
459,30	0,528
459,51	0,207
459,73	0,442
459,94	0,328
460,15	0,115
460,36	0,399
460,57	0,260
460,78	0,345
460,99	0,369
461,20	0,342
461,41	0,213
461,62	0,253
461,83	0,338
462,04	0,499
462,25	0,026
462,46	0,165
462,67	0,247
462,88	0,513
463,09	0,297
463,30	0,233
463,51	0,109
463,72	0,073
463,93	0,399
464,15	0,254
464,36	0,252
464,57	0,311
464,78	0,362
464,99	0,355
465,20	0,103
465,41	0,260
465,62	0,287
465,83	0,138
466,04	0,293
466,25	0,274
466,46	0,493
466,67	0,207
466,88	0,204
467,09	0,305
467,30	0,224
467,51	0,291
467,72	0,270
467,93	0,256
468,14	0,076
468,35	0,244
468,56	0,067
468,77	0,239
468,98	0,341
469,19	0,233
469,40	0,381
469,61	0,224
469,82	0,090
470,03	0,179
470,24	0,291
470,45	0,314
470,66	0,414
470,87	0,253
471,08	0,382
471,29	0,316
471,50	0,399
471,71	0,079
471,92	0,380
472,13	0,336
472,34	0,532
472,55	0,430
472,76	0,151
472,97	0,078
473,18	0,352
473,39	0,400
473,60	0,466
473,81	0,338
474,01	0,185
474,22	0,557
474,43	0,341
474,64	0,298
474,85	0,284
475,06	0,214
475,27	0,181
475,48	0,447
475,69	0,260
475,90	0,325
476,11	0,419
476,32	0,294
476,53	0,471
476,74	0,179
476,95	0,331
477,16	0,281
477,37	0,356
477,58	0,444
477,79	0,210
478,00	0,354
478,21	0,433
478,41	0,337
478,62	0,408
478,83	0,344
479,04	0,185
479,25	0,210
479,46	0,522
479,67	0,323
479,88	0,495
480,09	0,398
480,30	0,219
480,51	0,524
480,72	0,402
480,93	0,366
481,14	0,512
481,34	0,595
481,55	0,395
481,76	0,439
481,97	0,504
482,18	0,416
482,39	0,347
482,60	0,539
482,81	0,383
483,02	0,666
483,23	0,384
483,44	0,284
483,65	0,441
483,85	0,315
484,06	0,339
484,27	0,243
484,48	0,513
484,69	0,515
484,90	0,400
485,11	0,358
485,32	0,301
485,53	0,691
485,73	0,492
485,94	0,438
486,15	0,705
486,36	0,610
486,57	1,062
486,78	1,090
486,99	1,259
487,20	1,762
487,41	1,800
487,61	1,885
487,82	2,383
488,03	2,611
488,24	2,744
488,45	2,935
488,66	3,534
488,87	3,794
489,08	4,018
489,28	4,673
489,49	5,007
489,70	5,398
489,91	5,502
490,12	6,619
490,33	7,138
490,54	7,799
490,74	8,536
490,95	9,186
491,16	10,793
491,37	11,174
491,58	12,213
491,79	13,385
492,00	14,247
492,20	15,514
492,41	16,379
492,62	17,336
492,83	18,011
493,04	19,315
493,25	20,376
493,45	21,301
493,66	22,638
493,87	23,907
494,08	24,595
494,29	25,767
494,50	26,940
494,70	28,233
494,91	29,452
495,12	29,930
495,33	31,452
495,54	32,144
495,75	33,069
495,95	34,216
496,16	35,141
496,37	36,029
496,58	37,149
496,79	37,837
496,99	38,607
497,20	38,929
497,41	39,756
497,62	40,930
497,83	41,507
498,04	42,219
498,24	42,187
498,45	43,003
498,66	43,762
498,87	43,710
499,08	43,736
499,28	44,480
499,49	45,054
499,70	45,582
499,91	45,648
500,12	45,664
500,32	46,027
500,53	46,435
500,74	46,623
500,95	46,754
501,15	47,109
501,36	47,084
501,57	46,892
501,78	46,880
501,99	47,075
502,19	47,482
502,40	46,964
502,61	47,646
502,82	47,476
503,02	47,787
503,23	48,088
503,44	47,659
503,65	47,474
503,86	48,333
504,06	48,003
504,27	47,945
504,48	47,874
504,69	47,315
504,89	48,303
505,10	47,788
505,31	48,156
505,52	47,827
505,72	48,400
505,93	48,332
506,14	47,670
506,35	48,365
506,55	47,352
506,76	47,279
506,97	47,928
507,18	47,844
507,38	48,105
507,59	47,911
507,80	47,804
508,01	47,811
508,21	48,087
508,42	47,557
508,63	47,685
508,84	47,835
509,04	47,751
509,25	48,138
509,46	48,504
509,67	47,941
509,87	47,567
510,08	47,945
510,29	48,172
510,49	48,982
510,70	49,564
510,91	49,559
511,12	50,678
511,32	51,645
511,53	53,134
511,74	54,543
511,94	55,631
512,15	57,472
512,36	59,407
512,57	61,741
512,77	63,995
512,98	66,459
513,19	68,068
513,39	69,936
513,60	72,642
513,81	73,207
514,01	75,021
514,22	77,498
514,43	77,111
514,64	78,189
514,84	78,213
515,05	78,565
515,26	78,840
515,46	79,484
515,67	79,454
515,88	79,561
516,08	79,292
516,29	79,952
516,50	80,565
516,70	81,061
516,91	80,847
517,12	80,056
517,32	80,658
517,53	81,856
517,74	81,630
517,95	80,845
518,15	81,516
518,36	81,392
518,57	79,635
518,77	79,926
518,98	78,877
519,19	79,663
519,39	78,953
519,60	78,926
519,80	79,603
520,01	78,316
520,22	79,102
520,42	79,671
520,63	80,083
520,84	80,923
521,04	80,461
521,25	82,279
521,46	81,766
521,66	83,523
521,87	84,147
522,08	84,100
522,28	85,899
522,49	86,773
522,70	86,656
522,90	86,511
523,11	88,783
523,31	87,976
523,52	89,458
523,73	88,873
523,93	89,777
524,14	90,480
524,35	89,775
524,55	90,533
524,76	90,534
524,97	91,499
525,17	91,356
525,38	91,345
525,58	92,038
525,79	92,238
526,00	93,194
526,20	92,943
526,41	94,131
526,61	93,963
526,82	94,275
527,03	94,401
527,23	95,367
527,44	95,744
527,64	95,911
527,85	94,836
528,06	94,417
528,26	95,462
528,47	96,376
528,68	95,960
528,88	94,528
529,09	95,347
529,29	94,480
529,50	93,743
529,70	93,966
529,91	92,561
530,12	92,725
530,32	93,275
530,53	92,286
530,73	93,293
530,94	92,721
531,15	91,107
531,35	90,731
531,56	91,790
531,76	90,834
531,97	91,924
532,17	91,553
532,38	91,715
532,59	91,263
532,79	91,577
533,00	92,820
533,20	92,940
533,41	93,109
533,61	92,869
533,82	91,873
534,03	91,257
534,23	92,143
534,44	91,460
534,64	91,505
534,85	90,984
535,05	92,269
535,26	90,530
535,46	90,061
535,67	90,455
535,88	91,112
536,08	90,039
536,29	89,564
536,49	89,858
536,70	89,628
536,90	89,688
537,11	90,610
537,31	88,816
537,52	88,653
537,72	88,521
537,93	88,901
538,13	88,166
538,34	87,861
538,55	87,575
538,75	87,882
538,96	87,756
539,16	86,221
539,37	86,993
539,57	85,959
539,78	86,432
539,98	86,231
540,19	87,067
540,39	86,150
540,60	85,988
540,80	86,041
541,01	84,213
541,21	83,971
541,42	82,455
541,62	82,153
541,83	81,463
542,03	79,702
542,24	78,942
542,44	75,536
542,65	75,146
542,85	73,533
543,06	71,640
543,26	70,433
543,47	68,172
543,67	66,101
543,88	64,235
544,08	63,101
544,29	59,763
544,49	58,313
544,70	54,448
544,90	51,192
545,11	48,326
545,31	45,125
545,52	42,135
545,72	39,055
545,93	35,844
546,13	33,083
546,34	30,174
546,54	27,185
546,75	24,444
546,95	22,337
547,15	19,501
547,36	17,821
547,56	15,977
547,77	14,316
547,97	12,643
548,18	11,704
548,38	10,036
548,59	9,004
548,79	8,162
549,00	6,988
549,20	6,198
549,41	5,569
549,61	4,860
549,81	4,392
550,02	3,723
550,22	3,521
550,43	3,031
550,63	2,697
550,84	2,173
551,04	2,093
551,25	1,661
551,45	1,726
551,65	1,479
551,86	1,297
552,06	1,393
552,27	1,160
552,47	1,137
552,68	1,093
552,88	0,925
553,08	1,079
553,29	0,683
553,49	0,750
553,70	0,625
553,90	0,621
554,11	0,669
554,31	0,505
554,51	0,515
554,72	0,385
554,92	0,339
555,13	0,492
555,33	0,223
555,53	0,388
555,74	0,450
555,94	0,204
556,15	0,468
556,35	0,131
556,56	0,244
556,76	0,208
556,96	0,254
557,17	0,436
557,37	0,423
557,58	0,410
557,78	0,444
557,98	0,251
558,19	0,227
558,39	0,360
558,59	0,330
558,80	0,460
559,00	0,478
559,21	0,368
559,41	0,282
559,61	0,316
559,82	0,443
560,02	0,401
560,23	0,181
560,43	0,422
560,63	0,170
560,84	0,189
561,04	0,266
561,24	0,459
561,45	0,435
561,65	0,432
561,85	0,285
562,06	0,483
562,26	0,303
562,47	0,303
562,67	0,363
562,87	0,263
563,08	0,326
563,28	0,132
563,48	0,321
563,69	0,333
563,89	0,257
564,09	0,357
564,30	0,409
564,50	0,251
564,70	0,364
564,91	0,250
565,11	0,182
565,31	0,049
565,52	0,362
565,72	0,232
565,92	0,284
566,13	0,359
566,33	0,366
566,53	0,234
566,74	0,290
566,94	0,415
567,14	0,275
567,35	0,133
567,55	0,329
567,75	0,155
567,96	0,274
568,16	0,315
568,36	0,376
568,57	0,292
568,77	0,219
568,97	0,493
569,18	0,212
569,38	0,356
569,58	0,270
569,79	0,446
569,99	0,567
570,19	0,253
570,39	0,284
570,60	0,483
570,80	0,325
571,00	0,578
571,21	0,356
571,41	0,704
571,61	0,669
571,82	0,655
572,02	0,904
572,22	0,910
572,42	0,801
572,63	1,050
572,83	1,485
573,03	1,517
573,24	1,851
573,44	2,238
573,64	2,447
573,84	2,797
574,05	3,158
574,25	3,549
574,45	4,268
574,66	4,413
574,86	5,004
575,06	5,954
575,26	6,328
575,47	7,665
575,67	8,002
575,87	8,664
576,07	9,479
576,28	10,677
576,48	11,213
576,68	12,027
576,88	13,070
577,09	13,589
577,29	14,418
577,49	15,432
577,69	16,518
577,90	17,364
578,10	17,753
578,30	19,086
578,50	19,429
578,71	20,416
578,91	20,835
579,11	21,832
579,31	22,434
579,52	22,883
579,72	23,624
579,92	24,012
580,12	24,963
580,33	25,512
580,53	25,449
580,73	25,791
580,93	26,693
581,13	27,524
581,34	28,090
581,54	28,363
581,74	29,152
581,94	29,679
582,15	30,598
582,35	30,800
582,55	31,631
582,75	32,861
582,95	33,697
583,16	33,676
583,36	34,975
583,56	35,454
583,76	35,653
583,96	36,708
584,17	36,952
584,37	37,860
584,57	38,305
584,77	38,144
584,97	38,433
585,18	39,133
585,38	39,025
585,58	39,357
585,78	39,908
585,98	39,830
586,19	39,673
586,39	39,830
586,59	40,606
586,79	40,067
586,99	40,848
587,20	40,845
587,40	40,949
587,60	41,151
587,80	41,311
588,00	41,585
588,20	41,867
588,41	41,476
588,61	42,314
588,81	41,547
589,01	42,698
589,21	42,330
589,41	41,967
589,62	42,373
589,82	42,585
590,02	42,684
590,22	43,273
590,42	43,219
590,62	42,607
590,83	43,303
591,03	43,005
591,23	43,673
591,43	43,173
591,63	43,415
591,83	42,653
592,03	43,889
592,24	43,260
592,44	44,057
592,64	43,638
592,84	44,311
593,04	44,804
593,24	44,185
593,44	44,657
593,65	45,559
593,85	46,116
594,05	45,431
594,25	46,038
594,45	45,936
594,65	46,176
594,85	45,727
595,06	46,337
595,26	46,578
595,46	45,924
595,66	46,066
595,86	47,112
596,06	47,186
596,26	46,401
596,46	46,566
596,66	47,128
596,87	47,201
597,07	46,941
597,27	47,201
597,47	47,460
597,67	47,567
597,87	47,314
598,07	47,684
598,27	47,788
598,47	48,115
598,67	48,695
598,88	49,388
599,08	49,129
599,28	49,888
599,48	50,057
599,68	50,793
599,88	51,266
600,08	52,676
600,28	53,634
600,48	55,435
600,68	56,473
600,88	57,784
601,09	58,979
601,29	60,235
601,49	61,633
601,69	63,633
601,89	64,509
602,09	65,305
602,29	66,535
602,49	67,854
602,69	69,252
602,89	70,800
603,09	70,510
603,29	70,501
603,49	71,118
603,69	72,015
603,90	72,397
604,10	72,854
604,30	71,820
604,50	71,758
604,70	72,135
604,90	72,065
605,10	71,601
605,30	71,607
605,50	72,901
605,70	73,221
605,90	72,452
606,10	72,671
606,30	72,814
606,50	72,391
606,70	72,387
606,90	73,463
607,10	73,630
607,30	74,100
607,50	73,580
607,70	74,750
607,90	74,659
608,10	74,428
608,30	75,479
608,50	74,267
608,70	76,279
608,90	74,672
609,11	76,436
609,31	76,324
609,51	75,227
609,71	75,040
609,91	75,172
610,11	75,168
610,31	74,573
610,51	75,062
610,71	73,914
610,91	75,236
611,11	74,047
611,31	74,320
611,51	74,519
611,71	75,381
611,91	75,456
612,11	74,154
612,31	74,930
612,51	75,911
612,71	75,498
612,91	75,308
613,11	77,332
613,31	75,987
613,51	76,699
613,71	76,571
613,91	77,134
614,11	78,029
614,31	77,473
614,50	77,649
614,70	77,915
614,90	78,155
615,10	77,863
615,30	78,371
615,50	78,181
615,70	79,341
615,90	77,969
616,10	78,081
616,30	79,248
616,50	79,775
616,70	80,486
616,90	80,207
617,10	79,887
617,30	81,287
617,50	81,760
617,70	81,977
617,90	82,320
618,10	83,048
618,30	82,403
618,50	83,368
618,70	83,958
618,90	83,980
619,10	84,463
619,30	84,406
619,49	84,796
619,69	85,466
619,89	85,280
620,09	85,923
620,29	84,712
620,49	84,978
620,69	85,946
620,89	85,459
621,09	87,098
621,29	86,843
621,49	87,035
621,69	87,412
621,89	87,327
622,09	85,306
622,29	86,286
622,48	85,511
622,68	85,678
622,88	85,450
623,08	83,383
623,28	83,087
623,48	82,679
623,68	80,998
623,88	80,418
624,08	78,261
624,28	77,482
624,48	75,794
624,67	74,802
624,87	73,708
625,07	71,001
625,27	70,937
625,47	68,886
625,67	67,498
625,87	66,033
626,07	64,243
626,27	62,859
626,47	61,556
626,66	60,274
626,86	58,903
627,06	57,164
627,26	55,675
627,46	53,921
627,66	53,968
627,86	52,511
628,06	50,936
628,25	50,867
628,45	49,582
628,65	48,339
628,85	47,801
629,05	46,087
629,25	45,537
629,45	44,318
629,65	43,157
629,84	42,669
630,04	41,095
630,24	39,450
630,44	38,378
630,64	37,805
630,84	35,423
631,04	34,169
631,23	33,008
631,43	30,925
631,63	29,496
631,83	27,576
632,03	25,160
632,23	23,603
632,42	21,918
632,62	20,061
632,82	18,582
633,02	16,839
633,22	14,726
633,42	13,246
633,62	11,874
633,81	10,958
634,01	9,352
634,21	8,013
634,41	7,431
634,61	6,188
634,80	5,425
635,00	4,786
635,20	3,985
635,40	3,424
635,60	2,757
635,80	2,469
635,99	2,330
636,19	2,122
636,39	1,674
636,59	1,448
636,79	1,518
636,98	1,052
637,18	1,194
637,38	0,947
637,58	0,581
637,78	0,623
637,97	0,620
638,17	0,429
638,37	0,384
638,57	0,313
638,77	0,510
638,96	0,675
639,16	0,560
639,36	0,647
639,56	0,682
639,76	0,349
639,95	0,417
640,15	0,380
640,35	0,416
640,55	0,277
640,75	0,729
640,94	0,422
641,14	0,659
641,34	0,123
641,54	0,353
641,73	0,787
641,93	0,460
642,13	0,416
642,33	0,268
642,53	0,435
642,72	0,307
642,92	0,533
643,12	0,150
643,32	0,262
643,51	0,441
643,71	0,373
643,91	0,477
644,11	0,415
644,30	-0,136
644,50	0,150
644,70	0,479
644,90	0,021
645,09	0,414
645,29	0,194
645,49	0,345
645,69	0,247
645,88	0,072
646,08	0,391
646,28	0,372
646,48	0,487
646,67	0,276
646,87	0,431
647,07	0,257
647,26	0,164
647,46	0,045
647,66	0,217
647,86	-0,015
648,05	0,481
648,25	0,662
648,45	0,134
648,65	-0,023
648,84	0,046
649,04	0,159
649,24	0,261
649,43	0,298
649,63	0,201
649,83	0,305
650,03	-0,126
650,22	0,305
650,42	0,299
650,62	0,164
650,81	0,474
651,01	0,246
651,21	0,369
651,40	-0,063
651,60	0,080
651,80	0,137
652,00	0,097
652,19	0,351
652,39	0,357
652,59	0,179
652,78	0,291
652,98	0,097
653,18	-0,074
653,37	0,180
653,57	0,098
653,77	0,173
653,96	0,279
654,16	0,231
654,36	0,305
654,55	0,208
654,75	0,301
654,95	0,309
655,14	-0,050
655,34	0,356
655,54	0,437
655,73	0,246
655,93	0,513
656,13	-0,051
656,32	0,300
656,52	0,181
656,72	0,199
656,91	0,077
657,11	0,295
657,31	0,212
657,50	0,196
657,70	0,093
657,90	0,136
658,09	0,017
658,29	0,042
658,49	0,468
658,68	0,538
658,88	0,385
659,07	0,564
659,27	0,119
659,47	0,043
659,66	0,462
659,86	0,170
660,06	0,252
660,25	0,017
660,45	0,384
660,64	0,302
660,84	0,177
661,04	0,435
661,23	0,301
661,43	0,067
661,63	0,352
661,82	-0,076
662,02	0,017
662,21	-0,092
662,41	0,100
662,61	0,298
662,80	0,520
663,00	-0,387
663,19	0,084
663,39	0,377
663,59	0,336
663,78	0,091
663,98	0,282
664,17	0,376
664,37	0,132
664,57	0,122
664,76	-0,050
664,96	0,105
665,15	0,131
665,35	0,237
665,55	0,466
665,74	0,008
665,94	-0,318
666,13	-0,024
666,33	0,096
666,53	-0,326
666,72	0,309
666,92	0,270
667,11	-0,063
667,31	0,335
667,50	0,286
667,70	0,039
667,90	0,000
668,09	0,225
668,29	0,316
668,48	0,334
668,68	0,184
668,87	0,234
669,07	0,205
669,26	0,082
669,46	0,179
669,66	0,195
669,85	0,143
670,05	-0,215
670,24	0,171
670,44	0,270
670,63	0,521
670,83	0,386
671,02	0,152
671,22	0,329
671,42	0,717
671,61	0,108
671,81	0,260
672,00	-0,007
672,20	0,266
672,39	0,200
672,59	0,110
672,78	0,368
672,98	-0,041
673,17	0,176
673,37	0,184
673,56	0,175
673,76	0,511
673,95	-0,027
674,15	-0,180
674,34	-0,046
674,54	0,222
674,73	0,162
674,93	0,136
675,13	0,141
675,32	0,283
675,52	-0,045
675,71	0,076
675,91	0,295
676,10	0,292
676,30	0,100
676,49	0,173
676,69	0,129
676,88	0,061
677,08	-0,138
677,27	-0,282
677,47	0,225
677,66	0,188
677,86	0,275
678,05	0,064
678,24	-0,128
678,44	0,000
678,63	-0,011
678,83	0,126
679,02	0,192
679,22	0,219
679,41	0,254
679,61	0,176
679,80	0,197
680,00	0,168
680,19	-0,070
680,39	0,027
680,58	0,138
680,78	0,026
680,97	0,168
681,17	-0,041
681,36	0,135
681,56	-0,081
681,75	0,211
681,94	-0,065
682,14	0,035
682,33	0,391
682,53	0,044
682,72	0,228
682,92	0,087
683,11	0,191
683,31	0,085
683,50	0,033
683,69	0,037
683,89	0,200
684,08	-0,060
684,28	0,209
684,47	-0,018
684,67	-0,203
684,86	-0,129
685,06	0,093
685,25	-0,167
685,44	0,118
685,64	0,082
685,83	-0,048
686,03	0,129
686,22	-0,034
686,42	-0,101
686,61	0,213
686,80	0,150
687,00	0,012
687,19	0,237
687,39	0,106
687,58	-0,154
687,77	0,072
687,97	-0,060
688,16	-0,107
688,36	0,198
688,55	-0,016
688,74	0,039
688,94	0,202
689,13	0,015
689,33	-0,106
689,52	-0,228
689,71	0,218
689,91	-0,004
690,10	0,115
690,30	0,066
690,49	-0,026
690,68	-0,160
690,88	-0,040
691,07	-0,162
691,27	0,187
691,46	0,083
691,65	0,183
691,85	-0,007
692,04	-0,090
692,23	-0,158
692,43	-0,040
692,62	0,166
692,82	0,087
693,01	0,047
693,20	-0,047
693,40	-0,048
693,59	-0,143
693,78	-0,118
693,98	0,067
694,17	0,053
694,36	0,181
694,56	-0,196
694,75	-0,008
694,94	-0,016
695,14	0,076
695,33	0,020
695,53	-0,295
695,72	0,075
695,91	0,219
696,11	0,030
696,30	0,053
696,49	-0,076
696,69	0,101
696,88	0,263
697,07	0,077
697,27	0,158
697,46	-0,010
697,65	0,068
697,85	-0,048
698,04	-0,065
698,23	-0,193
698,43	0,394
698,62	-0,071
698,81	0,080
699,01	-0,089
699,20	0,013
699,39	0,253
699,58	-0,062
699,78	0,107
699,97	-0,169
700,16	-0,008
700,36	0,127
700,55	0,506
700,74	-0,242
700,94	0,197
701,13	-0,168
701,32	0,433
701,52	0,366
701,71	0,362
701,90	-0,354
702,09	-0,041
702,29	0,272
702,48	0,203
702,67	0,536
702,87	-0,232
703,06	-0,339
703,25	-0,086
703,44	0,209
703,64	0,168
703,83	0,754
704,02	-0,082
704,22	0,198
704,41	0,506
704,60	0,635
704,79	-0,395
704,99	0,202
705,18	-0,016
705,37	0,958
705,56	0,187
705,76	0,427
705,95	-0,198
706,14	0,420
706,33	0,167
706,53	0,397
706,72	0,625
706,91	0,165
707,11	-0,341
707,30	0,634
707,49	1,161
707,68	1,403
707,88	-0,205
708,07	0,696
708,26	0,844
708,45	0,335
708,64	-0,317
708,84	0,902
709,03	1,631
709,22	0,502
709,41	0,674
709,61	-0,195
709,80	1,090
709,99	0,342
710,18	-0,178
710,38	1,984
710,57	0,359
710,76	1,086
710,95	0,542
711,14	0,862
711,34	0,711
711,53	0,605
711,72	1,735
711,91	1,028
712,11	1,730
712,30	0,612
712,49	1,220
712,68	-0,386
712,87	0,703
713,07	2,792
713,26	-0,524
713,45	-0,206
713,64	0,860
713,83	1,329
714,03	0,687
714,22	-1,176
714,41	1,340
714,60	2,758
714,79	1,159
714,99	3,889
715,18	1,599
715,37	2,373
715,56	0,048
715,75	0,331
715,94	-0,102
716,14	0,241
716,33	0,880
716,52	2,548
716,71	-1,138
716,90	-1,582
717,10	3,529
717,29	2,186
717,48	0,737
717,67	0,113
717,86	-1,888
718,05	3,744
718,24	0,578
718,44	2,382
718,63	0,486
718,82	1,508
719,01	3,442
719,20	0,421
719,39	2,703
719,59	0,000
719,78	1,034
719,97	5,216
720,16	0,630
720,35	2,477
720,54	3,024
720,73	2,030
720,93	1,253
721,12	-1,657
721,31	3,207
721,50	6,463
721,69	3,248
721,88	3,947
722,07	5,610
722,27	-0,701
722,46	-1,489
722,65	-0,152
722,84	0,868
723,03	0,940
723,22	4,878
723,41	-0,645
723,60	0,589
723,79	2,502
723,99	5,114
724,18	2,988
724,37	1,773
724,56	1,133
724,75	-0,268
724,94	5,160
725,13	4,240
725,32	4,599
725,51	1,434
725,71	3,336
725,90	0,467
726,09	2,662
726,28	6,591
726,47	6,801
726,66	-0,389
726,85	-1,558
727,04	5,474
727,23	3,711
727,42	5,179
727,61	4,990
727,81	5,742
728,00	4,112
728,19	-0,106
728,38	0,534
728,57	3,978
728,76	5,139
728,95	2,077
729,14	2,036
729,33	-0,664
729,52	3,279
729,71	0,349
729,90	4,540
730,09	6,391
730,28	3,073
730,48	2,663
730,67	5,882
730,86	2,537
731,05	4,785
731,24	2,945
731,43	4,994
731,62	2,469
731,81	3,318
732,00	-0,623
732,19	2,130
732,38	5,576
732,57	2,010
732,76	-6,269
732,95	6,932
733,14	10,668
733,33	0,694
733,52	2,846
733,71	1,862
733,90	1,798
734,09	5,340
734,28	4,856
734,47	0,588
734,66	5,470
734,85	4,513
735,04	8,178
735,23	6,233
735,42	0,142
735,61	6,233
735,81	0,852
736,00	4,812
736,19	-0,600
736,38	9,323
736,57	0,000
736,76	2,062
736,95	3,668
737,14	13,957
737,33	-0,779
737,52	1,672
737,71	11,280
737,90	3,355
738,09	-0,862
738,28	5,519
738,47	0,965
738,66	9,153
738,85	0,000
739,04	1,127
739,22	3,259
739,41	-0,524
739,60	8,438
739,79	2,131
739,98	6,780
740,17	8,108
740,36	3,030
740,55	10,018
740,74	-2,602
740,93	7,926
741,12	5,709
741,31	-1,840
741,50	6,794
741,69	4,621
741,88	12,609
742,07	2,827
742,26	14,149
742,45	7,065
742,64	3,061
742,83	1,319
743,02	6,024
743,21	4,740
743,40	11,686
743,59	2,554
743,78	-9,494
743,97	11,575
744,16	4,526
744,34	-0,413
744,53	4,741
744,72	11,677
744,91	14,374
745,10	7,586
745,29	8,920
745,48	0,655
745,67	8,889
745,86	-1,245
746,05	11,857
746,24	13,578
746,43	14,512
746,62	15,385
746,81	0,000
747,00	13,542
747,18	12,500
747,37	3,182
747,56	23,112
747,75	5,627
747,94	14,646
748,13	17,290
748,32	3,171
748,51	19,438
748,70	4,077
748,89	0,538
749,08	16,502
749,26	6,667
749,45	10,304
749,64	5,426
749,83	8,108
750,02	6,166
750,21	5,469
750,40	-1,055
750,59	4,521
750,78	3,133
750,96	12,718
751,15	11,260
751,34	26,290
751,53	18,889
751,72	9,115
751,91	5,249
752,10	1,690
752,29	5,797
752,47	10,632
752,66	13,609
752,85	30,423
753,04	11,351
753,23	10,543
753,42	19,950
753,61	24,316
753,80	8,408
753,98	21,563
754,17	14,448
754,36	19,935
754,55	19,218
754,74	21,622
754,93	14,516
755,12	18,769
755,30	2,952
755,49	20,235
755,68	16,986
755,87	9,556
756,06	25,360
756,25	6,931
756,43	20,504
756,62	21,300
756,81	10,980
757,00	30,495
757,19	30,061
757,38	26,384
757,56	32,432
757,75	21,756
757,94	34,483
758,13	24,204
758,32	20,076
758,51	29,677
758,69	38,141
758,88	33,443
759,07	48,754
759,26	18,707
759,45	31,071
759,63	22,530
759,82	41,971
760,01	18,750
760,20	27,372
760,39	31,034
760,57	20,601
760,76	35,878
760,95	27,586
761,14	28,077
761,33	46,094
761,51	52,963
761,70	35,517
761,89	46,899
762,08	40,517
762,27	25,481
762,45	29,717
762,64	34,071
762,83	53,903
763,02	32,180
763,21	47,183
763,39	35,747
763,58	44,490
763,77	59,043
763,96	56,725
764,14	40,664
764,33	62,406
764,52	58,482
764,71	50,739
764,89	38,514
765,08	47,566
765,27	50,000
765,46	29,545
765,65	56,345
765,83	41,905
766,02	37,729
766,21	43,460
766,40	41,860
766,58	50,679
766,77	35,028
766,96	43,077
767,15	47,826
767,33	23,558
767,52	26,066
767,71	39,444
767,90	42,500
768,08	42,060
768,27	37,674
768,46	37,143
768,64	40,777
768,83	57,297
769,02	31,905
769,21	42,708
769,39	38,926
769,58	58,500
769,77	44,565
769,96	59,603
770,14	25,954
770,33	51,337
770,52	42,949
770,70	22,772
770,89	61,224
771,08	25,521
771,27	42,784
771,45	56,069
771,64	66,447
771,83	55,914
772,01	58,779
772,20	42,424
772,39	29,299
772,57	58,854
772,76	38,621
772,95	27,411
773,14	42,442
773,32	32,967
773,51	33,488
773,70	40,397
773,88	52,261
774,07	54,812
774,26	27,439
774,44	52,261
774,63	55,063
774,82	62,048
775,00	42,358
775,19	26,437
775,38	31,333
775,56	21,951
775,75	34,731
775,94	45,522
776,12	28,333
776,31	40,120
776,50	47,879
776,68	10,494
776,87	15,385
777,06	-6,849
777,24	31,148
777,43	20,325
777,62	25,185
777,80	38,043
777,99	49,045
778,18	31,847
778,36	22,137
778,55	40,741
778,74	12,121
778,92	55,204
779,11	64,516
779,29	51,634
779,48	18,182
779,67	43,165
779,85	39,200
780,04	64,085
780,23	4,196
780,41	18,235
780,60	42,105
780,79	28,472
780,97	27,857
781,16	35,200
781,34	49,242
781,53	41,026
781,72	79,630
781,90	60,577
782,09	9,836
782,28	56,098
782,46	22,764
782,65	51,748
782,83	51,908
783,02	56,000
783,21	63,566
783,39	57,051
783,58	72,667
783,76	44,595
783,95	31,126
784,14	22,105
784,32	38,532
784,51	66,292
784,69	35,032
784,88	38,710
785,06	51,773
785,25	47,368
785,44	41,892
785,62	69,286
785,81	3,731
785,99	36,735
786,18	54,098
786,37	60,000
786,55	25,373
786,74	44,099
786,92	41,860
787,11	48,000
787,29	30,588
787,48	9,000
787,67	-38,776
787,85	14,062
788,04	34,247
788,22	36,111
788,41	50,658
788,59	72,109
788,78	44,444
788,96	41,905
789,15	63,934
789,34	14,634
789,52	40,299
789,71	-6,349
789,89	17,544
790,08	50,980
790,26	21,429
790,45	34,307
790,63	36,842
790,82	50,000
791,00	41,270
791,19	47,143
791,38	46,575
791,56	73,684
791,75	29,730
791,93	48,039
792,12	20,455
792,30	46,053
792,49	38,318
792,67	60,000
792,86	74,324
793,04	21,429
793,23	50,000
793,41	38,065
793,60	62,025
793,78	58,389
793,97	36,207
794,15	37,255
794,34	29,592
794,52	69,767
794,71	79,630
794,89	62,143
795,08	39,744
795,26	8,000
795,45	57,447
795,63	46,541
795,82	55,462
796,00	-15,385
796,19	51,948
796,37	44,915
796,56	40,741
796,74	81,250
796,93	47,059
797,11	54,167
797,30	86,260
797,48	30,769
797,67	78,226
797,85	60,870
798,04	40,541
798,22	51,079
798,41	75,424
798,59	22,857
798,77	54,701
798,96	71,774
799,14	84,259
799,33	60,177
799,51	63,366
799,70	29,670
799,88	67,890
800,07	59,712
800,25	64,122
800,44	63,366
800,62	33,813
800,80	26,136
800,99	25,641
801,17	71,034
801,36	47,917
801,54	44,961
801,73	45,455
801,91	76,404
802,10	64,706
802,28	48,031
802,46	56,452
802,65	59,603
802,83	38,843
803,02	75,510
803,20	61,017
803,39	27,523
803,57	61,972
803,75	64,286
803,94	83,784
804,12	54,658
804,31	108,654
804,49	45,161
804,67	9,009
804,86	54,658
805,04	56,589
805,23	88,321
805,41	22,549
805,59	28,313
805,78	61,429
805,96	56,024
806,15	74,400
806,33	19,708
806,51	80,769
806,70	56,977
806,88	49,091
807,07	56,557
807,25	93,913
807,43	25,556
807,62	86,719
807,80	46,341
807,99	101,439
808,17	48,611
808,35	77,358
808,54	68,156
808,72	82,051
808,90	62,602
809,09	67,153
809,27	84,466
809,46	72,897
809,64	86,127
809,82	56,552
810,01	78,495
810,19	47,273
810,37	71,591
810,56	45,033
810,74	54,717
810,92	85,915
811,11	59,509
811,29	47,205
811,48	55,652
811,66	57,360
811,84	80,508
812,03	35,135
812,21	80,606
812,39	79,839
812,58	64,912
812,76	54,745
812,94	54,362
813,13	64,024
813,31	35,979
813,49	71,333
813,68	76,230
813,86	58,974
814,04	85,586
814,23	65,385
814,41	43,151
814,59	52,288
814,78	54,362
814,96	40,223
815,14	28,643
815,33	41,322
815,51	58,268
815,69	73,282
815,87	1,290
816,06	48,756
816,24	47,712
816,42	28,571
816,61	70,988
816,79	54,913
816,97	60,897
817,16	55,357
817,34	57,647
817,52	44,860
817,70	56,477
817,89	59,330
818,07	52,000
818,25	50,000
818,44	52,941
818,62	38,614
818,80	38,462
818,98	24,615
819,17	43,644
819,35	34,228
819,53	50,769
819,72	48,649
819,90	52,889
820,08	48,515
820,26	40,183
820,45	15,054
820,63	65,497
820,81	31,651
820,99	46,288
821,18	58,434
821,36	45,625
821,54	38,806
821,73	43,169
821,91	54,225
822,09	68,639
822,27	47,082
822,46	42,365
822,64	12,632
822,82	50,254
823,00	54,450
823,19	44,762
823,37	52,564
823,55	56,118
823,73	34,270
823,91	37,433
824,10	52,083
824,28	34,711
824,46	25,658
824,64	53,137
824,83	44,550
825,01	42,941
825,19	41,921
825,37	38,235
825,56	42,748
825,74	29,004
825,92	47,082
826,10	43,612
826,28	61,993
826,47	48,638
826,65	52,158
826,83	47,368
827,01	59,055
827,19	65,116
827,38	31,835
827,56	65,000
827,74	45,024
827,92	62,927
828,10	17,014
828,29	37,638
828,47	32,482
828,65	49,609
828,83	40,928
829,01	36,036
829,20	30,385
829,38	37,705
829,56	39,394
829,74	31,154
829,92	47,773
830,10	38,627
830,29	52,107
830,47	25,746
830,65	31,381
830,83	39,456
831,01	34,081
831,20	39,781
831,38	39,414
831,56	38,246
831,74	41,695
831,92	34,066
832,10	45,570
832,29	50,883
832,47	32,979
832,65	37,049
832,83	43,038
833,01	43,807
833,19	43,466
833,37	50,456
833,56	42,262
833,74	50,164
833,92	47,297
834,10	39,157
834,28	42,160
834,46	37,861
834,64	49,333
834,83	33,144
835,01	40,731
835,19	44,326
835,37	55,367
835,55	44,759
835,73	34,746
835,91	44,543
836,09	51,645
836,28	20,122
836,46	34,218
836,64	35,958
836,82	34,615
837,00	26,198
837,18	46,667
837,36	47,801
837,54	47,268
837,72	47,342
837,91	35,411
838,09	41,818
838,27	38,860
838,45	61,644
838,63	45,352
838,81	31,915
838,99	29,973
839,17	36,646
839,35	41,309
839,53	43,112
839,72	39,286
839,90	32,444
840,08	30,118
840,26	24,934
840,44	32,316
840,62	33,154
840,80	51,648
840,98	43,400
841,16	28,533
841,34	43,573
841,52	40,217
841,70	28,288
841,89	33,485
842,07	32,184
842,25	38,574
842,43	45,499
842,61	55,792
842,79	33,560
842,97	30,206
843,15	39,666
843,33	40,741
843,51	46,957
843,69	47,070
843,87	55,242
844,05	45,572
844,23	35,343
844,41	47,714
844,59	43,568
844,77	47,010
844,95	61,039
845,13	57,474
845,31	42,043
845,50	57,350
845,68	46,039
845,86	46,748
846,04	54,130
846,22	51,053
846,40	44,008
846,58	62,351
846,76	49,696
846,94	49,304
847,12	51,538
847,30	43,715
847,48	42,441
847,66	44,444
847,84	40,989
848,02	47,610
848,20	53,107
848,38	51,071
848,56	54,219
848,74	51,730
848,92	51,890
849,10	51,585
849,28	42,205
849,46	44,917
849,64	56,279
849,82	56,709
850,00	58,516
850,18	47,227
850,36	38,907
850,54	48,083
850,72	46,106
850,90	48,678
851,08	43,622
851,26	47,896
851,44	46,204
851,62	57,928
851,80	42,470
851,98	47,059
852,16	48,729
852,34	51,268
852,52	45,562
852,70	45,718
852,87	43,814
853,05	46,562
853,23	37,611
853,41	54,930
853,59	45,743
853,77	54,215
853,95	49,410
854,13	49,858
854,31	43,935
854,49	42,053
854,67	51,055
854,85	46,765
855,03	48,734
855,21	51,720
855,39	49,285
855,57	51,401
855,75	42,895
855,93	42,416
856,11	43,969
856,28	42,477
856,46	42,105
856,64	42,078
856,82	45,633
857,00	41,751
857,18	42,252
857,36	41,418
857,54	47,381
857,72	43,270
857,90	41,780
858,08	39,583
858,26	42,212
858,44	37,515
858,61	40,565
858,79	44,815
858,97	44,835
859,15	43,900
859,33	39,415
859,51	40,694
859,69	43,864
859,87	37,243
860,05	36,900
860,23	39,457
860,40	36,503
860,58	38,846
860,76	42,174
860,94	35,897
861,12	40,538
861,30	38,413
861,48	35,988
861,66	44,676
861,84	38,961
862,01	42,543
862,19	43,089
862,37	38,245
862,55	41,700
862,73	38,120
862,91	40,438
863,09	39,117
863,27	40,454
863,44	42,195
863,62	44,888
863,80	43,610
863,98	42,634
864,16	41,160
864,34	45,110
864,52	43,790
864,69	44,679
864,87	40,612
865,05	37,956
865,23	42,828
865,41	35,913
865,59	39,786
865,76	41,140
865,94	42,081
866,12	39,391
866,30	38,610
866,48	38,618
866,66	36,000
866,83	40,703
867,01	41,924
867,19	39,242
867,37	39,224
867,55	41,327
867,73	37,344
867,90	39,024
868,08	39,733
868,26	36,253
868,44	36,204
868,62	38,962
868,79	34,422
868,97	34,116
869,15	36,272
869,33	32,114
869,51	37,264
869,69	32,313
869,86	33,082
870,04	35,906
870,22	35,914
870,40	36,133
870,57	31,984
870,75	32,648
870,93	32,823
871,11	28,626
871,29	28,827
871,46	30,385
871,64	31,670
871,82	30,392
872,00	28,539
872,18	27,259
872,35	30,265
872,53	32,181
872,71	27,949
872,89	27,426
873,06	31,957
873,24	27,899
873,42	28,316
873,60	30,444
873,77	23,354
873,95	32,498
874,13	28,812
874,31	25,316
874,49	26,857
874,66	30,325
874,84	26,302
875,02	29,858
875,20	27,119
875,37	30,432
875,55	28,804
875,73	29,408
875,91	28,412
876,08	26,461
876,26	28,254
876,44	28,777
876,61	27,532
876,79	26,861
876,97	25,568
877,15	30,450
877,32	25,952
877,50	27,192
877,68	31,473
877,86	30,184
878,03	26,414
878,21	30,822
878,39	31,737
878,56	30,056
878,74	33,315
878,92	30,864
879,10	33,530
879,27	36,159
879,45	34,051
879,63	35,104
879,80	34,071
879,98	35,884
880,16	38,414
880,34	33,369
880,51	38,273
880,69	34,987
880,87	37,631
881,04	39,083
881,22	36,885
881,40	38,107
881,57	40,802
881,75	38,832
881,93	38,258
882,10	41,120
882,28	39,055
882,46	41,373
882,63	41,908
882,81	38,317
882,99	39,756
883,16	41,072
883,34	41,222
883,52	37,638
883,69	42,004
883,87	40,034
884,05	42,050
884,22	39,933
884,40	41,764
884,58	35,585
884,75	38,237
884,93	38,755
885,11	43,831
885,28	43,443
885,46	40,667
885,64	36,976
885,81	36,252
885,99	38,538
886,17	38,889
886,34	38,431
886,52	36,783
886,70	38,389
886,87	36,477
887,05	38,020
887,22	34,612
887,40	37,850
887,58	35,326
887,75	37,396
887,93	36,154
888,11	37,841
888,28	36,377
888,46	34,594
888,63	33,949
888,81	36,998
888,99	34,939
889,16	36,623
889,34	34,727
889,51	37,155
889,69	37,046
889,87	35,090
890,04	35,563
890,22	35,214
890,39	33,424
890,57	37,021
890,75	36,607
890,92	37,618
891,10	35,813
891,27	37,089
891,45	35,593
891,63	35,250
891,80	37,113
891,98	35,532
892,15	36,894
892,33	36,297
892,51	36,062
892,68	35,519
892,86	36,231
893,03	36,372
893,21	38,520
893,38	38,072
893,56	39,249
893,74	37,803
893,91	35,379
894,09	37,155
894,26	39,228
894,44	36,914
894,61	37,151
894,79	35,869
894,96	35,314
895,14	36,797
895,32	35,651
895,49	36,109
895,67	35,015
895,84	37,409
896,02	35,209
896,19	33,003
896,37	34,334
896,54	34,342
896,72	34,765
896,89	34,345
897,07	34,044
897,25	32,828
897,42	32,112
897,60	32,854
897,77	33,901
897,95	33,028
898,12	33,653
898,30	31,849
898,47	32,077
898,65	33,519
898,82	33,269
899,00	31,976
899,17	31,306
899,35	31,868
899,52	32,318
899,70	32,573
899,87	30,798
900,05	31,760
900,22	32,625
900,40	31,881
900,57	30,882
900,75	32,276
900,92	29,937
901,10	30,753
901,27	31,244
901,45	30,621
901,62	32,900
901,80	31,509
901,97	32,048
902,15	32,229
902,32	32,750
902,50	33,514
902,67	33,342
902,85	32,971
903,02	33,851
903,20	32,702
903,37	32,276
903,54	33,582
903,72	32,308
903,89	34,205
904,07	34,726
904,24	34,134
904,42	36,799
904,59	34,759
904,77	36,095
904,94	35,727
905,12	35,594
905,29	34,664
905,47	37,787
905,64	35,902
905,81	37,152
905,99	35,508
906,16	36,811
906,34	35,728
906,51	36,355
906,69	35,789
906,86	36,486
907,03	35,250
907,21	35,393
907,38	33,867
907,56	33,479
907,73	35,898
907,91	34,797
908,08	34,163
908,25	32,434
908,43	36,934
908,60	34,028
908,78	35,538
908,95	34,894
909,13	33,409
909,30	32,977
909,47	34,390
909,65	34,793
909,82	32,147
910,00	32,583
910,17	33,708
910,34	32,815
910,52	31,062
910,69	32,688
910,87	33,638
911,04	29,847
911,21	32,021
911,39	32,510
911,56	32,412
911,73	31,318
911,91	32,095
912,08	32,382
912,26	33,170
912,43	32,528
912,60	31,430
912,78	31,852
912,95	29,931
913,13	29,396
913,30	30,779
913,47	30,415
913,65	30,222
913,82	29,826
913,99	30,025
914,17	30,052
914,34	30,416
914,51	29,814
914,69	30,252
914,86	29,974
915,03	29,318
915,21	29,822
915,38	29,990
915,56	30,004
915,73	28,678
915,90	29,460
916,08	29,133
916,25	29,294
916,42	30,246
916,60	30,786
916,77	30,347
916,94	29,420
917,12	28,925
917,29	30,856
917,46	29,352
917,64	29,190
917,81	29,030
917,98	29,533
918,16	29,545
918,33	29,418
918,50	29,166
918,67	30,969
918,85	30,065
919,02	29,787
919,19	28,195
919,37	30,357
919,54	30,637
919,71	30,396
919,89	31,407
920,06	30,128
920,23	31,216
920,41	30,272
920,58	30,918
920,75	30,409
920,92	31,065
921,10	30,707
921,27	32,174
921,44	31,463
921,62	31,174
921,79	31,651
921,96	31,609
922,13	32,868
922,31	32,069
922,48	31,533
922,65	32,006
922,82	31,007
923,00	32,011
923,17	32,400
923,34	32,143
923,52	32,094
923,69	32,981
923,86	32,624
924,03	33,258
924,21	33,305
924,38	32,864
924,55	33,693
924,72	32,430
924,90	32,532
925,07	33,769
925,24	34,182
925,41	34,125
925,59	34,936
925,76	35,492
925,93	35,080
926,10	34,865
926,28	35,376
926,45	34,171
926,62	34,275
926,79	33,665
926,96	36,209
927,14	35,884
927,31	35,439
927,48	34,857
927,65	36,525
927,83	35,071
928,00	35,403
928,17	34,453
928,34	34,731
928,51	35,731
928,69	35,934
928,86	35,390
929,03	36,994
929,20	35,891
929,37	36,442
929,55	36,779
929,72	37,368
929,89	36,909
930,06	36,623
930,23	36,135
930,41	36,644
930,58	37,630
930,75	36,664
930,92	38,298
931,09	37,006
931,27	38,543
931,44	37,162
931,61	37,474
931,78	38,101
931,95	38,587
932,12	38,149
932,30	37,641
932,47	39,406
932,64	36,933
932,81	39,698
932,98	38,330
933,16	39,119
933,33	39,638
933,50	38,535
933,67	38,892
933,84	39,509
934,01	39,077
934,18	39,616
934,36	38,896
934,53	40,090
934,70	40,138
934,87	40,852
935,04	40,145
935,21	40,203
935,38	39,759
935,56	39,503
935,73	40,335
935,90	38,808
936,07	40,471
936,24	41,027
936,41	39,929
936,58	40,797
936,76	41,234
936,93	41,453
937,10	40,851
937,27	42,247
937,44	42,054
937,61	41,941
937,78	40,583
937,95	40,912
938,13	41,910
938,30	42,245
938,47	41,783
938,64	40,900
938,81	41,846
938,98	42,076
939,15	41,731
939,32	43,176
939,49	41,696
939,66	40,997
939,84	41,919
940,01	41,709
940,18	42,514
940,35	41,628
940,52	41,110
940,69	42,552
940,86	43,095
941,03	42,326
941,20	41,361
941,37	41,405
941,54	41,865
941,71	41,050
941,89	41,028
942,06	42,961
942,23	41,364
942,40	41,754
942,57	41,703
942,74	41,482
942,91	40,136
943,08	41,321
943,25	40,823
943,42	39,796
943,59	39,657
943,76	41,157
943,93	39,252
944,10	40,864
944,27	40,950
944,44	38,941
944,61	38,159
944,79	39,124
944,96	38,230
945,13	39,174
945,30	37,740
945,47	38,395
945,64	38,382
945,81	38,438
945,98	39,879
946,15	38,840
946,32	38,619
946,49	40,326
946,66	37,872
946,83	38,848
947,00	38,831
947,17	38,445
947,34	38,065
947,51	37,320
947,68	38,114
947,85	39,475
948,02	38,954
948,19	37,141
948,36	39,348
948,53	37,943
948,70	38,066
948,87	37,677
949,04	39,235
949,21	39,169
949,38	38,738
949,55	37,593
949,72	38,316
949,89	39,656
950,06	39,534
950,23	38,634
950,40	38,427
950,57	39,199
950,74	39,897
950,91	40,546
951,08	40,221
951,25	40,593
951,42	40,027
951,59	42,499
951,76	41,255
951,93	41,578
952,10	41,386
952,27	40,155
952,44	43,830
952,61	42,611
952,77	42,055
952,94	45,868
953,11	43,734
953,28	46,197
953,45	47,026
953,62	45,284
953,79	47,510
953,96	43,971
954,13	45,012
954,30	46,648
954,47	44,299
954,64	46,872
954,81	43,501
954,98	46,207
955,15	44,878
955,32	45,469
955,49	44,746
955,65	46,246
955,82	47,311
955,99	45,407
956,16	44,743
956,33	45,533
956,50	48,565
956,67	47,342
956,84	47,617
957,01	44,689
957,18	46,999
957,35	48,002
957,52	46,113
957,68	45,815
957,85	45,985
958,02	51,257
958,19	45,479
958,36	47,869
958,53	47,737
958,70	49,876
958,87	46,721
959,04	52,234
959,21	47,909
959,37	49,361
959,54	48,283
959,71	47,147
959,88	48,668
960,05	49,102
960,22	52,323
960,39	53,354
960,56	51,006
960,72	54,678
960,89	55,387
961,06	51,982
961,23	52,052
961,40	54,380
961,57	50,000
961,74	52,011
961,90	53,824
962,07	53,777
962,24	51,363
962,41	52,786
962,58	54,404
962,75	56,805
962,92	55,909
963,08	51,869
963,25	52,133
963,42	53,799
963,59	49,216
963,76	51,285
963,93	44,686
964,10	49,742
964,26	50,868
964,43	57,650
964,60	46,450
964,77	52,680
964,94	63,077
965,10	56,699
965,27	52,365
965,44	57,833
965,61	48,842
965,78	64,323
965,95	48,199
966,11	58,873
966,28	55,604
966,45	47,619
966,62	52,564
966,79	57,520
966,95	45,259
967,12	53,589
967,29	55,374
967,46	49,783
967,63	50,864
967,79	41,848
967,96	44,619
968,13	70,533
968,30	43,443
968,47	44,063
968,63	48,225
968,80	58,621
968,97	54,286
969,14	56,342
969,31	56,731
969,47	60,883
969,64	66,337
969,81	55,088
969,98	47,368
970,14	50,370
970,31	47,670
970,48	50,178
970,65	53,169
970,81	44,898
970,98	58,427
971,15	60,369
971,32	35,593
971,48	44,485
971,65	56,723
971,82	67,347
971,99	41,791
972,15	63,158
972,32	48,971
972,49	40,773
972,66	38,938
972,82	43,069
972,99	58,723
973,16	80,412
973,33	63,810
973,49	80,000
973,66	68,067
973,83	40,136
974,00	62,295
974,16	58,491
974,33	69,512
974,50	45,833
974,67	50,526
974,83	60,452
975,00	46,377
975,17	72,789
975,33	47,826
975,50	92,727
975,67	75,000
975,84	58,865
976,00	40,769
976,17	100,000
976,34	58,156
976,50	69,565
976,67	78,448
976,84	52,564
977,00	60,150
977,17	55,906
977,34	136,559
977,50	81,915
977,67	67,544
977,84	33,636
978,01	83,908
978,17	174,359
978,34	93,750
978,51	22,727
978,67	56,044
978,84	54,167
979,01	66,154
979,17	74,242
979,34	6,250
979,51	9,615
979,67	120,000
979,84	84,524
980,01	83,607
980,17	31,765
980,34	105,797
980,51	156,818
980,67	104,000
980,84	50,000
981,01	84,615
981,17	80,000
981,34	512,500
981,50	82,353
981,67	174,138
981,84	72,414
982,00	45,652
982,17	309,091
982,34	182,051
982,50	57,895
982,67	94,444
982,84	142,857
983,00	184,000
983,17	-8,333
983,33	98,387
983,50	46,739
983,67	117,391
983,83	916,667
984,00	284,375
984,17	-90,000
984,33	102,703
984,50	32,292
984,66	132,143
984,83	105,814
985,00	219,672
985,16	48,718
985,33	275,000
985,49	141,379
985,66	193,939
985,83	117,544
985,99	56,757
986,16	244,000
986,32	110,145
986,49	483,333
986,66	32,558
986,82	105,263
986,99	128,571
987,15	75,862
987,32	131,481
987,49	125,000
987,65	360,000
987,82	17,647
987,98	264,706
988,15	146,429
988,31	98,000
988,48	95,833
988,65	177,778
988,81	193,478
988,98	383,333
989,14	89,796
989,31	180,000
989,47	34,146
989,64	42,857
989,80	186,667
989,97	141,176
990,14	165,217
990,30	162,500
990,47	107,317
990,63	291,304
990,80	221,212
990,96	287,500
991,13	175,000
991,29	41,176
991,46	101,961
991,62	176,471
991,79	98,246
991,95	365,000
992,12	118,605
992,29	92,000
992,45	-238,462
992,62	-630,000
992,78	29,630
992,95	88,889
993,11	156,667
993,28	92,593
993,44	260,870
993,61	1566,667
993,77	520,000
993,94	209,302
994,10	357,143
994,27	156,000
994,43	258,824
994,60	-75,758
994,76	394,737
994,93	395,455
995,09	-100,000
995,26	111,111
995,42	94,915
995,59	214,286
995,75	287,500
995,92	345,455
996,08	316,667
996,25	211,111
996,41	122,917
996,58	159,459
996,74	540,000
996,91	411,111
997,07	203,846
997,23	168,085
997,40	2233,333
997,56	393,333
997,73	0,000
997,89	222,222
998,06	-49,020
998,22	4000,000
998,39	282,609
998,55	-191,667
998,72	275,000
998,88	2200,000
999,05	-153,846
999,21	247,826
999,37	-3800,000
999,54	-1450,000
999,70	400,000
999,87	-162,500
1000,03	59,375
1000,20	750,000
1000,36	3600,000
1000,52	127,778
1000,69	161,364
1000,85	103,448
1001,02	115,385
1001,18	150,000
1001,35	-86,667
1001,51	-364,286
1001,67	-22,667
1001,84	483,333
1002,00	75,000
1002,17	63,636
1002,33	-129,412
1002,50	-77,778
1002,66	3500,000
1002,82	211,429
1002,99	-96,154
1003,15	186,957
1003,32	93,548
1003,48	120,000
1003,64	47,500
1003,81	-103,571
1003,97	250,000
1004,14	1466,667
1004,30	-628,571
1004,46	625,000
1004,63	173,684
1004,79	-180,000
1004,95	138,235
1005,12	-557,143
1005,28	220,690
1005,45	146,154
1005,61	-1800,000
1005,77	113,158
1005,94	138,710
1006,10	-3100,000
1006,26	100,000
1006,43	477,778
1006,59	-100,000
1006,76	-32,000
1006,92	780,000
1007,08	540,000
1007,25	-80,556
1007,41	-83,333
1007,57	-150,000
1007,74	4,348
1007,90	-380,000
1008,06	140,000
1008,23	170,370
1008,39	1300,000
1008,55	-142,857
1008,72	493,750
1008,88	166,000
1009,04	296,000
1009,21	-105,882
1009,37	-325,000
1009,53	-242,105
1009,70	-353,846
1009,86	100,000
1010,02	461,538
1010,19	0,000
1010,35	218,750
1010,51	477,778
1010,68	837,500
1010,84	-766,667
1011,00	146,667
1011,17	-300,000
1011,33	294,118
1011,49	146,875
1011,66	104,348
1011,82	-20,755
1011,98	-52,273
1012,14	116,667
1012,31	-1280,000
1012,47	900,000
1012,63	266,667
1012,80	212,000
1012,96	-290,909
1013,12	102,326
1013,29	102,632
1013,45	168,889
1013,61	11,111
1013,77	122,222
1013,94	90,625
1014,10	18,182
1014,26	2100,000
1014,43	-157,576
1014,59	-675,000
1014,75	950,000
1014,91	1333,333
1015,08	333,333
1015,24	-966,667
1015,40	-352,941
1015,56	177,778
1015,73	228,889
1015,89	157,143
1016,05	1240,000
1016,21	-144,444
1016,38	660,000
1016,54	-615,385
1016,70	-74,074
1016,86	33,333
1017,03	169,231
1017,19	186,957
1017,35	-261,538
1017,51	114,286
1017,68	518,182
1017,84	4900,000
1018,00	657,143
1018,16	95,833
1018,33	-300,000
1018,49	160,976
1018,65	-85,294
1018,81	5,000
1018,97	-725,000
1019,14	316,667
1019,30	96,875
1019,46	577,778
1019,62	246,667
1019,79	341,667
1019,95	91,667
1020,11	-100,000
1020,27	550,000
1020,43	-528,571
1020,60	-278,947
1020,76	-94,444
1020,92	578,571
1021,08	2600,000
1021,24	295,000
1021,41	2,941
1021,57	645,455
1021,73	-975,000
1021,89	-328,571
1022,05	200,000
1022,21	182,051
1022,38	-350,000
1022,54	1400,000
1022,70	-286,364
1022,86	2050,000
1023,02	-311,765
1023,19	-222,222
1023,35	267,742
1023,51	128,571
1023,67	116,667
1023,83	1966,667
1023,99	166,667
1024,16	176,190
1024,32	48,000
1024,48	118,182
1024,64	500,000
1024,80	-130,556
1024,96	141,379
1025,12	-114,286
1025,29	110,714
1025,45	127,778
1025,61	-1100,000
1025,77	19,355
1025,93	450,000
1026,09	119,512
1026,26	152,632
1026,42	-108,333
1026,58	-17,391
1026,74	162,500
1026,90	138,889
1027,06	-10,256
1027,22	-139,130
1027,38	117,391
1027,55	33,333
1027,71	310,000
1027,87	-237,500
1028,03	-156,250
1028,19	-223,529
1028,35	14,286
1028,51	332,000
1028,67	205,882
1028,83	120,000
1029,00	-100,000
1029,16	94,595
1029,32	207,143
1029,48	-585,714
1029,64	-100,000
1029,80	281,818
1029,96	733,333
1030,12	121,053
1030,28	-900,000
1030,44	800,000
1030,61	213,636
1030,77	-800,000
1030,93	-381,250
1031,09	800,000
1031,25	0,000
1031,41	450,000
1031,57	-1325,000
1031,73	-1475,000
1031,89	18,182
1032,05	-93,023
1032,21	9,091
1032,37	119,643
1032,53	-86,207
1032,69	200,000
1032,86	-366,667
1033,02	-122,222
1033,18	158,333
1033,34	-650,000
1033,50	68,750
1033,66	-8,000
1033,82	533,333
1033,98	2500,000
1034,14	-371,429
1034,30	-286,667
1034,46	164,706
1034,62	130,769
1034,78	-100,000
1034,94	241,935
1035,10	-146,154
1035,26	355,556
1035,42	-23,333
1035,58	279,167
1035,74	135,135
1035,90	218,750
1036,06	74,510
1036,22	193,939
1036,38	-218,750
1036,54	-87,500
1036,70	116,129
1036,86	165,000
1037,02	-200,000
1037,18	5,882
1037,34	500,000
1037,50	-840,000
1037,66	-800,000
1037,82	314,286
1037,98	462,500
1038,14	-1425,000
1038,30	203,448
1038,46	-642,857
1038,62	311,111
1038,78	42,857
1038,94	470,000
1039,10	280,000
1039,26	-141,667
1039,42	247,826
1039,58	-1225,000
1039,74	550,000
1039,90	-41,667
1040,06	-6,154
>>>>>End Processed Spectral Data<<<<<
