SpectraSuite Data File
++++++++++++++++++++++++++++++++++++
Date: Wed Jan 25 18:51:50 EET 2017
User: TheoProf
Dark Spectrum Present: Yes
Reference Spectrum Present: Yes
Number of Sampled Component Spectra: 1
Spectrometers: USB4C02475
Integration Time (usec): 64136 (USB4C02475)
Spectra Averaged: 1 (USB4C02475)
Boxcar Smoothing: 0 (USB4C02475)
Correct for Electrical Dark: No (USB4C02475)
Strobe/Lamp Enabled: No (USB4C02475)
Correct for Detector Non-linearity: No (USB4C02475)
Correct for Stray Light: No (USB4C02475)
Number of Pixels in Processed Spectrum: 3648
>>>>>Begin Processed Spectral Data<<<<<
344.91	275.000
345.13	275.000
345.35	275.000
345.57	42.857
345.79	-125.000
346.00	-15.789
346.22	-975.000
346.44	-27.586
346.66	-500.000
346.87	41.379
347.09	100.000
347.31	52.174
347.53	31.373
347.74	52.632
347.96	21.429
348.18	125.000
348.40	57.895
348.61	-46.154
348.83	18.182
349.05	72.131
349.27	-33.333
349.48	35.294
349.70	100.000
349.92	61.290
350.14	22.951
350.35	88.889
350.57	14.583
350.79	8.824
351.01	23.077
351.22	-70.000
351.44	73.077
351.66	170.000
351.87	-16.667
352.09	237.500
352.31	-20.000
352.53	16.667
352.74	-106.897
352.96	92.000
353.18	82.927
353.40	1300.000
353.61	9.524
353.83	381.818
354.05	280.000
354.26	51.515
354.48	11.905
354.70	-42.105
354.92	-11.538
355.13	27.586
355.35	-71.698
355.57	-19.608
355.78	100.000
356.00	54.167
356.22	90.411
356.44	0.000
356.65	36.538
356.87	142.308
357.09	28.000
357.30	1.020
357.52	783.333
357.74	12.727
357.95	-54.167
358.17	61.364
358.39	65.116
358.60	93.750
358.82	-53.846
359.04	-180.000
359.26	11.765
359.47	27.778
359.69	17.822
359.91	85.000
360.12	140.000
360.34	40.541
360.56	75.000
360.77	38.462
360.99	32.759
361.21	128.571
361.42	-36.170
361.64	62.500
361.86	-50.000
362.07	-75.610
362.29	-13.636
362.51	0.000
362.72	315.385
362.94	36.923
363.16	-2.273
363.37	-25.000
363.59	-64.000
363.81	112.500
364.02	100.000
364.24	-130.769
364.46	71.154
364.67	1125.000
364.89	21.212
365.11	-9.259
365.32	42.857
365.54	-52.632
365.76	45.977
365.97	-51.515
366.19	-127.273
366.41	42.857
366.62	20.000
366.84	185.714
367.05	1.818
367.27	-30.303
367.49	190.323
367.70	11.429
367.92	42.105
368.14	-38.095
368.35	-2.941
368.57	15.190
368.79	-13.208
369.00	36.735
369.22	-180.000
369.43	70.313
369.65	75.000
369.87	37.143
370.08	72.222
370.30	20.000
370.51	-280.000
370.73	33.333
370.95	-38.462
371.16	16.667
371.38	537.500
371.60	400.000
371.81	-2.632
372.03	30.435
372.24	-400.000
372.46	110.345
372.68	45.833
372.89	31.579
373.11	23.729
373.32	111.111
373.54	94.737
373.76	36.735
373.97	8.108
374.19	20.513
374.40	12.069
374.62	-56.250
374.84	10.000
375.05	64.815
375.27	-80.000
375.48	5.882
375.70	48.276
375.92	7.692
376.13	46.667
376.35	6.349
376.56	-114.286
376.78	25.000
376.99	55.385
377.21	-93.023
377.43	-84.615
377.64	67.532
377.86	14.286
378.07	440.000
378.29	18.182
378.51	22.222
378.72	52.055
378.94	61.429
379.15	15.789
379.37	34.000
379.58	-256.250
379.80	-50.000
380.01	-57.895
380.23	-4.444
380.45	-23.684
380.66	-34.783
380.88	59.091
381.09	3.125
381.31	-25.000
381.52	-221.739
381.74	94.737
381.95	-340.000
382.17	-22.727
382.39	5.172
382.60	45.238
382.82	-52.000
383.03	-318.750
383.25	-5.000
383.46	-231.579
383.68	52.273
383.89	51.429
384.11	47.458
384.32	-4.651
384.54	31.313
384.76	21.739
384.97	-29.412
385.19	6.250
385.40	41.935
385.62	-44.828
385.83	46.032
386.05	28.333
386.26	-14.815
386.48	1.639
386.69	45.679
386.91	0.000
387.12	10.769
387.34	-15.385
387.55	-238.889
387.77	5.479
387.98	29.412
388.20	15.789
388.41	45.714
388.63	72.000
388.84	13.235
389.06	18.182
389.27	42.574
389.49	40.000
389.70	31.373
389.92	-33.929
390.13	19.388
390.35	26.471
390.56	33.333
390.78	35.227
390.99	1.408
391.21	14.706
391.42	-11.111
391.64	17.500
391.85	36.111
392.07	-787.500
392.28	0.000
392.50	6.667
392.71	-3.226
392.93	24.138
393.14	17.925
393.36	6.604
393.57	12.903
393.79	-4300.000
394.00	-29.412
394.22	-41.667
394.43	44.086
394.65	-4.839
394.86	46.154
395.08	-16.456
395.29	51.765
395.50	19.512
395.72	-35.484
395.93	28.571
396.15	21.774
396.36	3.448
396.58	20.870
396.79	25.676
397.01	-10.938
397.22	-26.866
397.44	31.092
397.65	32.500
397.87	-78.378
398.08	-13.675
398.29	4.412
398.51	13.333
398.72	21.970
398.94	25.439
399.15	-34.653
399.37	11.194
399.58	51.064
399.80	10.784
400.01	29.762
400.22	51.852
400.44	8.889
400.65	26.471
400.87	-0.862
401.08	30.303
401.30	1.389
401.51	-17.742
401.72	9.032
401.94	-19.828
402.15	18.966
402.37	27.358
402.58	-37.500
402.80	-8.219
403.01	-12.346
403.22	35.789
403.44	12.121
403.65	43.382
403.87	32.143
404.08	5.769
404.30	2.308
404.51	42.373
404.72	40.426
404.94	-10.687
405.15	30.405
405.37	32.283
405.58	-80.000
405.79	10.526
406.01	19.608
406.22	34.400
406.44	37.589
406.65	-5.625
406.86	19.868
407.08	3.704
407.29	12.500
407.51	23.077
407.72	7.639
407.93	32.237
408.15	17.791
408.36	9.489
408.58	16.757
408.79	10.563
409.00	-22.581
409.22	-4.372
409.43	-2.128
409.64	-25.000
409.86	13.580
410.07	0.633
410.29	14.953
410.50	-13.559
410.71	-11.111
410.93	21.925
411.14	-14.724
411.35	15.033
411.57	-1.205
411.78	-18.343
412.00	6.993
412.21	-23.973
412.42	4.192
412.64	-9.848
412.85	21.637
413.06	8.716
413.28	10.000
413.49	21.256
413.70	0.565
413.92	-2.069
414.13	-8.929
414.34	23.560
414.56	-13.497
414.77	18.824
414.98	13.613
415.20	16.763
415.41	13.333
415.63	17.544
415.84	8.333
416.05	29.565
416.27	-5.455
416.48	20.492
416.69	17.568
416.91	11.594
417.12	12.500
417.33	19.409
417.55	-8.721
417.76	-14.943
417.97	2.439
418.19	25.000
418.40	-3.297
418.61	11.765
418.83	8.597
419.04	6.757
419.25	9.426
419.46	4.367
419.68	0.476
419.89	1.604
420.10	9.623
420.32	19.920
420.53	18.072
420.74	15.769
420.96	25.498
421.17	14.625
421.38	17.241
421.60	3.750
421.81	23.333
422.02	31.034
422.23	26.141
422.45	13.704
422.66	25.833
422.87	21.374
423.09	11.454
423.30	19.907
423.51	32.841
423.73	16.017
423.94	32.872
424.15	19.691
424.36	25.625
424.58	31.142
424.79	24.752
425.00	37.676
425.22	33.000
425.43	46.014
425.64	27.597
425.85	22.672
426.07	34.069
426.28	35.274
426.49	33.210
426.71	18.713
426.92	32.840
427.13	37.294
427.34	31.515
427.56	36.607
427.77	25.781
427.98	19.758
428.19	36.293
428.41	36.177
428.62	42.123
428.83	43.733
429.04	25.466
429.26	40.118
429.47	45.846
429.68	26.769
429.89	46.131
430.11	28.125
430.32	47.493
430.53	32.619
430.74	36.335
430.96	38.743
431.17	39.601
431.38	34.516
431.59	33.028
431.81	34.677
432.02	32.865
432.23	47.500
432.44	48.205
432.66	39.106
432.87	35.866
433.08	45.370
433.29	39.594
433.51	43.382
433.72	46.136
433.93	46.853
434.14	46.479
434.35	45.036
434.57	43.396
434.78	41.687
434.99	54.310
435.20	53.010
435.42	71.926
435.63	79.705
435.84	72.774
436.05	80.423
436.26	67.568
436.48	63.925
436.69	67.872
436.90	68.906
437.11	59.590
437.32	68.476
437.54	72.141
437.75	70.179
437.96	64.671
438.17	75.418
438.38	85.141
438.60	76.493
438.81	80.723
439.02	65.613
439.23	67.593
439.44	61.719
439.66	67.500
439.87	72.481
440.08	77.273
440.29	64.729
440.50	72.621
440.72	55.145
440.93	74.688
441.14	74.379
441.35	85.271
441.56	70.053
441.77	72.250
441.99	68.657
442.20	72.760
442.41	65.653
442.62	60.345
442.83	68.243
443.04	62.520
443.26	66.507
443.47	56.692
443.68	70.034
443.89	72.007
444.10	69.176
444.31	67.877
444.53	68.781
444.74	59.652
444.95	68.174
445.16	64.430
445.37	55.016
445.58	72.742
445.80	74.637
446.01	70.921
446.22	75.043
446.43	72.699
446.64	63.859
446.85	68.092
447.06	66.572
447.28	65.058
447.49	80.346
447.70	80.887
447.91	81.448
448.12	72.267
448.33	74.621
448.54	80.371
448.76	78.805
448.97	75.035
449.18	82.229
449.39	80.245
449.60	77.809
449.81	82.738
450.02	69.817
450.23	74.089
450.45	73.947
450.66	65.786
450.87	70.347
451.08	70.916
451.29	77.191
451.50	73.386
451.71	68.758
451.92	63.358
452.13	68.532
452.35	63.753
452.56	63.920
452.77	71.613
452.98	74.247
453.19	80.077
453.40	72.835
453.61	75.168
453.82	79.793
454.03	79.387
454.25	76.387
454.46	75.968
454.67	72.847
454.88	63.918
455.09	67.416
455.30	64.156
455.51	68.301
455.72	69.412
455.93	72.727
456.14	69.150
456.35	64.502
456.56	73.144
456.78	69.477
456.99	69.776
457.20	62.237
457.41	70.065
457.62	63.826
457.83	68.132
458.04	69.207
458.25	67.254
458.46	67.573
458.67	65.433
458.88	65.708
459.09	67.781
459.30	67.778
459.51	68.505
459.73	73.404
459.94	69.103
460.15	69.223
460.36	75.869
460.57	70.657
460.78	72.040
460.99	71.266
461.20	67.378
461.41	68.915
461.62	73.382
461.83	72.569
462.04	70.523
462.25	70.671
462.46	77.364
462.67	70.698
462.88	71.837
463.09	78.559
463.30	66.891
463.51	77.998
463.72	73.424
463.93	70.008
464.15	65.799
464.36	66.535
464.57	64.177
464.78	62.849
464.99	58.496
465.20	62.851
465.41	64.981
465.62	60.645
465.83	62.876
466.04	68.976
466.25	60.108
466.46	67.594
466.67	63.905
466.88	57.299
467.09	55.106
467.30	56.335
467.51	49.175
467.72	49.930
467.93	49.632
468.14	44.299
468.35	42.081
468.56	41.494
468.77	36.842
468.98	36.940
469.19	31.356
469.40	34.912
469.61	29.338
469.82	29.177
470.03	20.552
470.24	20.927
470.45	17.202
470.66	19.621
470.87	17.587
471.08	9.994
471.29	11.256
471.50	9.106
471.71	11.080
471.92	8.089
472.13	6.156
472.34	5.476
472.55	6.170
472.76	5.020
472.97	0.000
473.18	2.821
473.39	2.594
473.60	3.966
473.81	3.128
474.01	3.259
474.22	4.931
474.43	1.825
474.64	2.032
474.85	3.124
475.06	1.404
475.27	0.141
475.48	0.000
475.69	1.939
475.90	2.610
476.11	3.789
476.32	2.455
476.53	1.213
476.74	1.482
476.95	2.216
477.16	2.179
477.37	1.775
477.58	2.528
477.79	1.715
478.00	0.084
478.21	1.548
478.41	2.764
478.62	2.204
478.83	2.803
479.04	-0.162
479.25	0.988
479.46	0.788
479.67	3.377
479.88	4.156
480.09	1.468
480.30	1.794
480.51	0.553
480.72	2.302
480.93	1.581
481.14	0.746
481.34	2.262
481.55	1.253
481.76	3.015
481.97	0.772
482.18	2.781
482.39	2.430
482.60	1.830
482.81	1.516
483.02	2.539
483.23	2.072
483.44	3.393
483.65	2.170
483.85	3.805
484.06	2.135
484.27	2.908
484.48	3.095
484.69	2.780
484.90	2.953
485.11	3.575
485.32	2.446
485.53	3.660
485.73	3.957
485.94	3.303
486.15	3.679
486.36	3.270
486.57	2.951
486.78	4.065
486.99	2.948
487.20	2.446
487.41	2.508
487.61	3.314
487.82	3.678
488.03	4.021
488.24	2.939
488.45	2.835
488.66	3.007
488.87	3.922
489.08	3.546
489.28	4.067
489.49	2.769
489.70	2.887
489.91	1.773
490.12	3.402
490.33	4.031
490.54	3.370
490.74	3.036
490.95	2.688
491.16	2.576
491.37	1.656
491.58	3.281
491.79	3.199
492.00	1.965
492.20	2.628
492.41	2.653
492.62	1.569
492.83	1.994
493.04	2.652
493.25	1.865
493.45	2.026
493.66	1.904
493.87	3.647
494.08	2.063
494.29	2.541
494.50	1.565
494.70	2.592
494.91	2.725
495.12	2.024
495.33	1.846
495.54	1.414
495.75	2.064
495.95	2.918
496.16	1.674
496.37	1.144
496.58	0.986
496.79	1.889
496.99	2.044
497.20	2.236
497.41	1.974
497.62	2.517
497.83	1.909
498.04	0.814
498.24	2.094
498.45	1.841
498.66	1.725
498.87	0.995
499.08	2.189
499.28	2.265
499.49	1.539
499.70	2.146
499.91	1.289
500.12	1.337
500.32	-0.039
500.53	0.867
500.74	1.925
500.95	1.554
501.15	0.923
501.36	2.218
501.57	1.955
501.78	0.680
501.99	1.864
502.19	1.809
502.40	0.857
502.61	1.739
502.82	1.120
503.02	1.505
503.23	1.140
503.44	1.565
503.65	0.751
503.86	1.702
504.06	1.717
504.27	0.746
504.48	0.993
504.69	0.513
504.89	1.234
505.10	2.291
505.31	1.218
505.52	1.040
505.72	1.604
505.93	2.569
506.14	1.444
506.35	0.572
506.55	1.479
506.76	1.953
506.97	1.676
507.18	0.968
507.38	1.414
507.59	1.010
507.80	1.223
508.01	1.835
508.21	1.350
508.42	0.928
508.63	1.375
508.84	1.784
509.04	1.164
509.25	1.364
509.46	1.928
509.67	1.156
509.87	1.633
510.08	1.901
510.29	1.810
510.49	1.613
510.70	2.387
510.91	2.552
511.12	2.641
511.32	2.967
511.53	3.290
511.74	4.220
511.94	5.113
512.15	4.294
512.36	4.931
512.57	5.259
512.77	4.931
512.98	5.929
513.19	7.692
513.39	7.960
513.60	9.411
513.81	10.080
514.01	11.016
514.22	12.051
514.43	13.866
514.64	14.506
514.84	16.503
515.05	17.053
515.26	20.142
515.46	20.431
515.67	21.255
515.88	21.632
516.08	23.504
516.29	25.972
516.50	27.360
516.70	29.043
516.91	30.049
517.12	31.927
517.32	32.673
517.53	33.486
517.74	35.490
517.95	34.186
518.15	34.870
518.36	35.620
518.57	34.212
518.77	36.522
518.98	39.072
519.19	39.683
519.39	40.698
519.60	42.036
519.80	40.888
520.01	42.077
520.22	40.988
520.42	42.565
520.63	42.497
520.84	41.915
521.04	42.079
521.25	41.641
521.46	40.391
521.66	40.666
521.87	41.665
522.08	41.880
522.28	43.396
522.49	43.431
522.70	43.548
522.90	43.434
523.11	44.907
523.31	46.269
523.52	47.135
523.73	46.699
523.93	46.262
524.14	45.803
524.35	45.967
524.55	46.841
524.76	46.774
524.97	48.502
525.17	47.659
525.38	48.132
525.58	48.656
525.79	48.028
526.00	49.968
526.20	51.405
526.41	53.127
526.61	53.732
526.82	55.049
527.03	57.825
527.23	57.828
527.44	58.549
527.64	58.463
527.85	61.126
528.06	64.064
528.26	65.008
528.47	67.062
528.68	66.200
528.88	68.706
529.09	71.018
529.29	74.684
529.50	77.148
529.70	77.099
529.91	77.682
530.12	77.387
530.32	78.614
530.53	81.189
530.73	82.562
530.94	85.662
531.15	86.510
531.35	88.968
531.56	87.496
531.76	84.776
531.97	85.109
532.17	81.598
532.38	81.412
532.59	79.980
532.79	82.799
533.00	81.921
533.20	82.211
533.41	80.314
533.61	81.979
533.82	81.814
534.03	83.549
534.23	83.421
534.44	85.825
534.64	88.139
534.85	88.834
535.05	86.989
535.26	87.987
535.46	85.438
535.67	84.320
535.88	82.858
536.08	81.556
536.29	79.257
536.49	78.703
536.70	79.647
536.90	78.011
537.11	78.616
537.31	81.927
537.52	84.120
537.72	83.068
537.93	82.093
538.13	83.998
538.34	86.839
538.55	86.934
538.75	86.880
538.96	83.137
539.16	82.567
539.37	82.171
539.57	81.367
539.78	83.463
539.98	84.416
540.19	86.485
540.39	85.269
540.60	90.567
540.80	90.615
541.01	90.344
541.21	89.072
541.42	89.833
541.62	88.066
541.83	87.597
542.03	85.458
542.24	84.283
542.44	82.522
542.65	82.980
542.85	81.256
543.06	82.355
543.26	81.277
543.47	82.444
543.67	84.229
543.88	87.306
544.08	85.645
544.29	83.322
544.49	83.784
544.70	84.989
544.90	87.706
545.11	90.845
545.31	93.366
545.52	92.894
545.72	89.720
545.93	86.219
546.13	85.416
546.34	85.416
546.54	85.412
546.75	87.439
546.95	92.020
547.15	95.819
547.36	93.067
547.56	92.365
547.77	93.169
547.97	93.479
548.18	91.305
548.38	88.728
548.59	87.799
548.79	87.833
549.00	90.296
549.20	89.413
549.41	91.056
549.61	89.198
549.81	87.133
550.02	84.242
550.22	82.194
550.43	80.161
550.63	82.276
550.84	81.392
551.04	83.341
551.25	82.773
551.45	83.783
551.65	84.371
551.86	83.852
552.06	85.152
552.27	86.787
552.47	86.203
552.68	89.508
552.88	90.613
553.08	90.814
553.29	92.503
553.49	92.637
553.70	90.904
553.90	92.283
554.11	91.863
554.31	94.105
554.51	92.559
554.72	91.888
554.92	91.073
555.13	92.418
555.33	90.292
555.53	90.220
555.74	89.236
555.94	86.407
556.15	85.411
556.35	85.443
556.56	86.300
556.76	86.156
556.96	88.790
557.17	88.550
557.37	88.061
557.58	87.411
557.78	90.492
557.98	89.737
558.19	93.303
558.39	91.818
558.59	88.474
558.80	86.425
559.00	84.812
559.21	84.675
559.41	84.952
559.61	81.331
559.82	82.194
560.02	81.705
560.23	81.742
560.43	81.460
560.63	82.535
560.84	83.397
561.04	86.528
561.24	87.615
561.45	90.845
561.65	90.519
561.85	90.876
562.06	88.909
562.26	86.713
562.47	83.988
562.67	83.872
562.87	82.934
563.08	82.364
563.28	82.215
563.48	81.320
563.69	80.853
563.89	82.177
564.09	83.066
564.30	82.921
564.50	82.143
564.70	79.102
564.91	78.883
565.11	78.183
565.31	76.461
565.52	74.249
565.72	74.887
565.92	72.883
566.13	71.701
566.33	72.854
566.53	72.314
566.74	73.952
566.94	74.409
567.14	73.718
567.35	72.478
567.55	70.816
567.75	68.193
567.96	65.508
568.16	62.319
568.36	58.524
568.57	56.880
568.77	55.758
568.97	54.067
569.18	51.808
569.38	50.653
569.58	46.506
569.79	44.485
569.99	41.010
570.19	39.874
570.39	36.711
570.60	34.710
570.80	31.453
571.00	29.099
571.21	25.873
571.41	25.513
571.61	23.127
571.82	19.645
572.02	18.738
572.22	16.899
572.42	14.948
572.63	13.238
572.83	12.128
573.03	10.710
573.24	9.707
573.44	8.666
573.64	7.883
573.84	6.632
574.05	6.382
574.25	5.736
574.45	5.036
574.66	4.736
574.86	4.142
575.06	3.525
575.26	3.453
575.47	2.401
575.67	2.216
575.87	2.081
576.07	2.213
576.28	2.370
576.48	2.034
576.68	1.974
576.88	1.794
577.09	1.936
577.29	1.368
577.49	1.709
577.69	1.512
577.90	1.319
578.10	1.237
578.30	0.949
578.50	1.303
578.71	1.326
578.91	1.124
579.11	1.506
579.31	1.523
579.52	0.998
579.72	1.299
579.92	1.348
580.12	1.268
580.33	1.299
580.53	1.490
580.73	1.276
580.93	1.089
581.13	1.410
581.34	1.185
581.54	1.266
581.74	1.207
581.94	1.113
582.15	1.025
582.35	1.224
582.55	1.472
582.75	1.158
582.95	1.218
583.16	1.603
583.36	1.591
583.56	1.632
583.76	1.637
583.96	1.633
584.17	1.431
584.37	1.247
584.57	1.573
584.77	1.683
584.97	1.336
585.18	1.327
585.38	1.800
585.58	1.221
585.78	1.095
585.98	1.516
586.19	1.370
586.39	1.314
586.59	1.145
586.79	1.477
586.99	1.980
587.20	1.475
587.40	2.054
587.60	1.642
587.80	1.488
588.00	1.329
588.20	1.568
588.41	1.369
588.61	1.878
588.81	1.524
589.01	1.385
589.21	0.905
589.41	1.109
589.62	1.098
589.82	1.197
590.02	1.251
590.22	0.931
590.42	1.442
590.62	1.397
590.83	1.160
591.03	0.950
591.23	1.111
591.43	1.124
591.63	1.278
591.83	1.278
592.03	0.925
592.24	0.867
592.44	1.081
592.64	1.151
592.84	1.467
593.04	1.218
593.24	1.422
593.44	1.056
593.65	1.498
593.85	1.188
594.05	1.348
594.25	1.196
594.45	0.907
594.65	0.986
594.85	1.011
595.06	1.109
595.26	0.840
595.46	1.017
595.66	0.880
595.86	0.810
596.06	0.902
596.26	1.265
596.46	0.787
596.66	1.117
596.87	1.057
597.07	0.807
597.27	0.731
597.47	0.925
597.67	0.781
597.87	0.887
598.07	0.900
598.27	0.703
598.47	1.175
598.67	1.125
598.88	1.301
599.08	0.944
599.28	1.082
599.48	0.894
599.68	1.067
599.88	1.396
600.08	0.931
600.28	1.420
600.48	1.354
600.68	1.283
600.88	1.238
601.09	1.493
601.29	1.629
601.49	2.128
601.69	1.896
601.89	2.167
602.09	2.332
602.29	2.731
602.49	2.902
602.69	3.280
602.89	3.556
603.09	4.073
603.29	4.126
603.49	4.649
603.69	5.147
603.90	5.666
604.10	6.405
604.30	6.904
604.50	7.525
604.70	8.601
604.90	9.505
605.10	10.506
605.30	11.825
605.50	13.365
605.70	13.937
605.90	14.953
606.10	15.864
606.30	16.897
606.50	16.854
606.70	18.770
606.90	19.293
607.10	19.872
607.30	21.000
607.50	22.663
607.70	23.313
607.90	24.233
608.10	24.771
608.30	25.706
608.50	26.157
608.70	25.352
608.90	25.228
609.11	25.825
609.31	26.213
609.51	27.584
609.71	28.104
609.91	28.849
610.11	29.490
610.31	31.593
610.51	33.737
610.71	36.237
610.91	37.836
611.11	38.814
611.31	38.530
611.51	37.986
611.71	37.629
611.91	37.074
612.11	37.443
612.31	37.388
612.51	37.532
612.71	37.727
612.91	38.434
613.11	38.053
613.31	38.115
613.51	39.800
613.71	41.763
613.91	42.417
614.11	43.513
614.31	43.780
614.50	43.653
614.70	43.850
614.90	43.823
615.10	43.064
615.30	43.034
615.50	41.633
615.70	41.751
615.90	41.808
616.10	42.000
616.30	41.522
616.50	42.432
616.70	43.930
616.90	43.752
617.10	44.618
617.30	45.279
617.50	45.023
617.70	45.065
617.90	44.998
618.10	45.657
618.30	46.408
618.50	46.913
618.70	48.307
618.90	48.986
619.10	50.921
619.30	53.152
619.49	54.394
619.69	55.222
619.89	55.472
620.09	54.901
620.29	55.936
620.49	58.287
620.69	60.866
620.89	61.678
621.09	63.457
621.29	64.054
621.49	64.355
621.69	67.208
621.89	68.143
622.09	68.701
622.29	69.964
622.48	71.539
622.68	72.657
622.88	71.925
623.08	71.837
623.28	69.477
623.48	67.434
623.68	67.897
623.88	69.293
624.08	71.548
624.28	72.785
624.48	74.610
624.67	77.005
624.87	78.654
625.07	79.904
625.27	78.938
625.47	78.929
625.67	78.895
625.87	80.322
626.07	80.690
626.27	79.681
626.47	79.688
626.66	77.581
626.86	76.665
627.06	77.227
627.26	77.595
627.46	79.849
627.66	82.855
627.86	84.460
628.06	82.314
628.25	81.135
628.45	79.671
628.65	80.441
628.85	79.991
629.05	80.510
629.25	79.449
629.45	80.770
629.65	81.859
629.84	80.829
630.04	78.636
630.24	79.184
630.44	79.250
630.64	78.958
630.84	77.558
631.04	78.963
631.23	78.777
631.43	76.690
631.63	76.809
631.83	77.994
632.03	78.258
632.23	78.482
632.42	79.306
632.62	80.163
632.82	81.749
633.02	83.625
633.22	84.399
633.42	82.333
633.62	81.444
633.81	79.955
634.01	79.122
634.21	78.687
634.41	76.968
634.61	75.939
634.80	75.047
635.00	75.891
635.20	77.191
635.40	76.804
635.60	77.471
635.80	79.349
635.99	79.881
636.19	81.731
636.39	84.257
636.59	84.038
636.79	84.964
636.98	84.136
637.18	82.974
637.38	81.311
637.58	82.297
637.78	83.414
637.97	82.501
638.17	80.972
638.37	80.243
638.57	79.899
638.77	79.318
638.96	78.651
639.16	78.653
639.36	79.778
639.56	79.615
639.76	80.227
639.95	81.246
640.15	80.353
640.35	79.749
640.55	76.985
640.75	77.898
640.94	77.658
641.14	77.885
641.34	78.032
641.54	79.285
641.73	77.639
641.93	78.225
642.13	77.684
642.33	77.850
642.53	78.494
642.72	79.447
642.92	81.168
643.12	83.984
643.32	87.478
643.51	88.541
643.71	88.157
643.91	89.822
644.11	90.780
644.30	90.232
644.50	87.441
644.70	86.135
644.90	84.031
645.09	83.415
645.29	82.921
645.49	81.338
645.69	79.906
645.88	79.591
646.08	80.071
646.28	78.715
646.48	77.486
646.67	76.553
646.87	77.132
647.07	78.246
647.26	80.628
647.46	79.821
647.66	80.496
647.86	82.184
648.05	82.246
648.25	82.528
648.45	83.565
648.65	85.150
648.84	85.924
649.04	85.762
649.24	86.248
649.43	84.644
649.63	85.578
649.83	83.644
650.03	82.765
650.22	83.332
650.42	84.206
650.62	84.951
650.81	82.831
651.01	82.819
651.21	81.373
651.40	81.244
651.60	79.447
651.80	79.383
652.00	79.066
652.19	79.485
652.39	79.461
652.59	78.225
652.78	79.200
652.98	78.259
653.18	78.372
653.37	77.614
653.57	77.227
653.77	76.803
653.96	78.639
654.16	80.186
654.36	81.584
654.55	79.679
654.75	78.003
654.95	75.557
655.14	73.381
655.34	71.294
655.54	70.156
655.73	69.286
655.93	68.857
656.13	67.821
656.32	67.430
656.52	66.572
656.72	65.139
656.91	63.418
657.11	61.586
657.31	60.240
657.50	59.222
657.70	59.214
657.90	57.726
658.09	56.877
658.29	55.225
658.49	52.174
658.68	50.251
658.88	47.965
659.07	46.880
659.27	46.254
659.47	44.103
659.66	42.628
659.86	39.745
660.06	37.794
660.25	34.501
660.45	32.829
660.64	31.317
660.84	29.483
661.04	27.346
661.23	26.137
661.43	24.436
661.63	23.193
661.82	20.882
662.02	20.008
662.21	18.560
662.41	16.914
662.61	15.406
662.80	14.358
663.00	13.052
663.19	11.817
663.39	10.217
663.59	8.904
663.78	8.556
663.98	7.739
664.17	7.163
664.37	6.246
664.57	5.628
664.76	5.023
664.96	4.322
665.15	3.992
665.35	3.258
665.55	2.924
665.74	2.717
665.94	2.136
666.13	2.023
666.33	1.752
666.53	1.842
666.72	1.511
666.92	1.481
667.11	1.521
667.31	1.261
667.50	1.327
667.70	1.034
667.90	0.879
668.09	1.192
668.29	0.980
668.48	0.965
668.68	0.961
668.87	0.679
669.07	0.689
669.26	0.675
669.46	0.496
669.66	0.497
669.85	0.630
670.05	0.472
670.24	0.733
670.44	0.648
670.63	0.677
670.83	0.342
671.02	0.450
671.22	0.545
671.42	0.382
671.61	0.402
671.81	0.434
672.00	0.327
672.20	0.193
672.39	0.308
672.59	0.548
672.78	0.265
672.98	0.210
673.17	0.131
673.37	0.301
673.56	0.342
673.76	0.281
673.95	0.303
674.15	0.208
674.34	0.270
674.54	0.164
674.73	0.302
674.93	0.249
675.13	0.212
675.32	0.171
675.52	0.252
675.71	0.087
675.91	0.201
676.10	0.427
676.30	0.191
676.49	0.176
676.69	0.269
676.88	0.318
677.08	0.132
677.27	0.194
677.47	0.161
677.66	0.230
677.86	0.342
678.05	0.088
678.24	0.192
678.44	0.126
678.63	0.165
678.83	0.131
679.02	0.240
679.22	0.416
679.41	0.142
679.61	0.059
679.80	0.073
680.00	0.290
680.19	0.112
680.39	0.162
680.58	0.059
680.78	0.405
680.97	-0.055
681.17	0.279
681.36	0.008
681.56	0.042
681.75	0.215
681.94	0.102
682.14	0.055
682.33	0.051
682.53	0.117
682.72	0.058
682.92	0.206
683.11	-0.061
683.31	-0.032
683.50	0.196
683.69	0.145
683.89	0.033
684.08	0.036
684.28	0.166
684.47	-0.053
684.67	0.045
684.86	0.152
685.06	0.152
685.25	0.074
685.44	0.087
685.64	-0.037
685.83	0.160
686.03	0.024
686.22	0.229
686.42	0.053
686.61	-0.049
686.80	0.054
687.00	0.046
687.19	0.091
687.39	-0.037
687.58	0.049
687.77	0.398
687.97	0.196
688.16	0.132
688.36	0.069
688.55	-0.021
688.74	0.183
688.94	0.108
689.13	0.026
689.33	0.088
689.52	-0.029
689.71	-0.004
689.91	-0.148
690.10	0.056
690.30	0.072
690.49	0.105
690.68	-0.054
690.88	-0.030
691.07	-0.013
691.27	-0.026
691.46	-0.017
691.65	0.122
691.85	-0.074
692.04	0.022
692.23	0.009
692.43	0.063
692.62	0.062
692.82	0.100
693.01	0.008
693.20	-0.141
693.40	0.040
693.59	0.073
693.78	-0.068
693.98	-0.072
694.17	-0.040
694.36	-0.108
694.56	-0.154
694.75	-0.057
694.94	0.092
695.14	-0.111
695.33	-0.029
695.53	-0.222
695.72	-0.199
695.91	0.073
696.11	-0.009
696.30	-0.102
696.49	0.136
696.69	0.115
696.88	-0.101
697.07	0.013
697.27	-0.090
697.46	-0.206
697.65	0.048
697.85	0.032
698.04	0.036
698.23	-0.065
698.43	0.032
698.62	-0.057
698.81	0.036
699.01	-0.135
699.20	-0.050
699.39	-0.141
699.58	0.154
699.78	-0.116
699.97	-0.217
700.16	0.070
700.36	-0.099
700.55	-0.004
700.74	-0.120
700.94	0.207
701.13	0.050
701.32	-0.095
701.52	-0.127
701.71	0.020
701.90	-0.217
702.09	-0.008
702.29	-0.103
702.48	0.099
702.67	0.013
702.87	-0.017
703.06	-0.181
703.25	0.086
703.44	0.057
703.64	-0.086
703.83	-0.058
704.02	0.058
704.22	-0.202
704.41	-0.061
704.60	-0.154
704.79	-0.057
704.99	-0.009
705.18	-0.052
705.37	-0.026
705.56	0.098
705.76	-0.101
705.95	0.046
706.14	-0.129
706.33	0.000
706.53	0.164
706.72	0.133
706.91	0.240
707.11	0.102
707.30	-0.017
707.49	0.215
707.68	0.013
707.88	-0.048
708.07	-0.052
708.26	0.250
708.45	-0.034
708.64	0.125
708.84	0.029
709.03	0.025
709.22	0.370
709.41	0.196
709.61	-0.055
709.80	-0.013
709.99	-0.060
710.18	0.181
710.38	-0.082
710.57	0.152
710.76	-0.061
710.95	0.022
711.14	-0.075
711.34	-0.017
711.53	0.025
711.72	0.004
711.91	-0.050
712.11	0.008
712.30	0.063
712.49	0.081
712.68	0.263
712.87	0.138
713.07	-0.004
713.26	-0.088
713.45	-0.158
713.64	0.075
713.83	0.061
714.03	0.177
714.22	-0.181
714.41	0.022
714.60	-0.155
714.79	0.095
714.99	0.102
715.18	-0.271
715.37	-0.127
715.56	0.040
715.75	-0.004
715.94	0.345
716.14	0.036
716.33	-0.157
716.52	-0.140
716.71	0.027
716.90	0.100
717.10	-0.014
717.29	0.076
717.48	-0.170
717.67	0.009
717.86	0.151
718.05	-0.075
718.24	0.066
718.44	0.004
718.63	0.004
718.82	0.053
719.01	-0.230
719.20	-0.066
719.39	-0.109
719.59	-0.275
719.78	-0.086
719.97	-0.157
720.16	-0.155
720.35	-0.266
720.54	0.000
720.73	-0.084
720.93	0.117
721.12	-0.144
721.31	0.019
721.50	-0.089
721.69	-0.071
721.88	-0.148
722.07	-0.226
722.27	-0.033
722.46	-0.284
722.65	0.005
722.84	-0.172
723.03	0.062
723.22	-0.142
723.41	0.093
723.60	0.046
723.79	0.113
723.99	0.111
724.18	-0.200
724.37	-0.089
724.56	-0.288
724.75	0.024
724.94	0.033
725.13	-0.023
725.32	-0.114
725.51	-0.123
725.71	-0.169
725.90	-0.314
726.09	-0.042
726.28	-0.028
726.47	-0.033
726.66	-0.101
726.85	-0.098
727.04	0.228
727.23	0.150
727.42	0.174
727.61	-0.102
727.81	0.161
728.00	0.024
728.19	-0.259
728.38	-0.024
728.57	0.100
728.76	0.058
728.95	0.224
729.14	0.069
729.33	-0.040
729.52	0.216
729.71	-0.055
729.90	0.005
730.09	-0.198
730.28	-0.045
730.48	-0.173
730.67	0.071
730.86	0.087
731.05	-0.345
731.24	-0.095
731.43	-0.097
731.62	0.000
731.81	-0.103
732.00	0.097
732.19	-0.005
732.38	-0.241
732.57	-0.101
732.76	0.042
732.95	-0.047
733.14	0.063
733.33	0.005
733.52	0.016
733.71	0.199
733.90	-0.110
734.09	-0.180
734.28	-0.010
734.47	0.062
734.66	-0.088
734.85	-0.229
735.04	-0.080
735.23	-0.110
735.42	-0.078
735.61	0.073
735.81	-0.051
736.00	0.074
736.19	-0.218
736.38	-0.017
736.57	-0.034
736.76	0.038
736.95	-0.126
737.14	-0.064
737.33	0.141
737.52	-0.072
737.71	-0.181
737.90	0.021
738.09	-0.255
738.28	-0.081
738.47	-0.220
738.66	-0.154
738.85	-0.145
739.04	-0.298
739.22	-0.047
739.41	0.018
739.60	-0.144
739.79	0.046
739.98	-0.326
740.17	0.017
740.36	0.095
740.55	0.022
740.74	-0.005
740.93	0.137
741.12	-0.168
741.31	-0.091
741.50	0.097
741.69	0.029
741.88	0.110
742.07	0.114
742.26	-0.029
742.45	-0.161
742.64	0.156
742.83	-0.052
743.02	-0.035
743.21	-0.131
743.40	-0.078
743.59	0.050
743.78	0.139
743.97	-0.084
744.16	-0.080
744.34	0.127
744.53	0.295
744.72	-0.067
744.91	0.191
745.10	-0.039
745.29	-0.026
745.48	-0.064
745.67	-0.089
745.86	0.179
746.05	0.083
746.24	-0.013
746.43	0.006
746.62	-0.139
746.81	-0.123
747.00	-0.130
747.18	0.078
747.37	-0.051
747.56	0.415
747.75	0.045
747.94	-0.040
748.13	-0.120
748.32	0.089
748.51	-0.110
748.70	-0.076
748.89	-0.021
749.08	0.069
749.26	0.158
749.45	0.110
749.64	0.049
749.83	-0.483
750.02	0.158
750.21	0.036
750.40	0.015
750.59	-0.289
750.78	-0.059
750.96	0.105
751.15	0.060
751.34	0.157
751.53	0.068
751.72	-0.083
751.91	-0.341
752.10	0.030
752.29	0.290
752.47	-0.134
752.66	0.099
752.85	-0.108
753.04	0.024
753.23	0.032
753.42	-0.254
753.61	0.240
753.80	-0.048
753.98	0.239
754.17	0.016
754.36	-0.185
754.55	0.008
754.74	-0.103
754.93	-0.165
755.12	-0.052
755.30	0.161
755.49	-0.191
755.68	0.488
755.87	-0.408
756.06	0.304
756.25	0.062
756.43	-0.123
756.62	0.208
756.81	0.319
757.00	0.121
757.19	0.018
757.38	-0.027
757.56	0.037
757.75	-0.244
757.94	0.612
758.13	0.087
758.32	0.701
758.51	0.188
758.69	-0.119
758.88	0.159
759.07	-0.010
759.26	0.010
759.45	-0.289
759.63	0.336
759.82	0.295
760.01	0.064
760.20	-0.229
760.39	-0.011
760.57	0.166
760.76	0.367
760.95	0.237
761.14	0.292
761.33	-0.171
761.51	0.452
761.70	-0.023
761.89	-0.114
762.08	0.139
762.27	0.338
762.45	0.316
762.64	-0.309
762.83	0.180
763.02	0.087
763.21	0.126
763.39	0.165
763.58	-0.370
763.77	-0.281
763.96	0.747
764.14	0.293
764.33	0.728
764.52	0.212
764.71	0.307
764.89	0.240
765.08	0.560
765.27	-0.174
765.46	0.133
765.65	0.053
765.83	-0.338
766.02	-0.095
766.21	-0.591
766.40	-0.578
766.58	0.082
766.77	0.427
766.96	0.043
767.15	-0.074
767.33	0.275
767.52	0.741
767.71	0.281
767.90	0.188
768.08	0.791
768.27	-0.433
768.46	0.097
768.64	0.276
768.83	0.000
769.02	0.000
769.21	0.050
769.39	0.051
769.58	-0.359
769.77	0.480
769.96	0.563
770.14	-0.461
770.33	0.186
770.52	0.440
770.70	0.017
770.89	0.292
771.08	-0.136
771.27	0.963
771.45	0.223
771.64	-0.035
771.83	0.119
772.01	0.472
772.20	0.347
772.39	0.070
772.57	0.018
772.76	-0.165
772.95	0.748
773.14	1.169
773.32	-0.314
773.51	0.228
773.70	-0.019
773.88	-0.715
774.07	-0.485
774.26	1.234
774.44	0.076
774.63	1.034
774.82	-0.605
775.00	-0.207
775.19	1.312
775.38	0.113
775.56	-0.381
775.75	-0.096
775.94	-0.355
776.12	1.077
776.31	-0.020
776.50	1.597
776.68	0.826
776.87	0.282
777.06	-0.467
777.24	-0.325
777.43	0.144
777.62	0.328
777.80	-0.511
777.99	-0.456
778.18	1.377
778.36	0.376
778.55	0.062
778.74	0.351
778.92	-0.706
779.11	0.974
779.29	0.490
779.48	0.160
779.67	-0.410
779.85	1.068
780.04	-0.266
780.23	1.436
780.41	-0.223
780.60	-0.387
780.79	0.100
780.97	0.881
781.16	0.433
781.34	0.457
781.53	0.458
781.72	1.213
781.90	0.097
782.09	0.679
782.28	0.641
782.46	0.961
782.65	0.235
782.83	0.081
783.02	-0.140
783.21	0.138
783.39	0.852
783.58	0.463
783.76	0.745
783.95	0.077
784.14	0.634
784.32	0.461
784.51	0.636
784.69	0.539
784.88	0.872
785.06	-0.778
785.25	-0.125
785.44	0.425
785.62	-0.053
785.81	0.886
785.99	0.379
786.18	-0.185
786.37	0.056
786.55	0.975
786.74	0.419
786.92	0.198
787.11	0.891
787.29	0.118
787.48	0.776
787.67	0.394
787.85	-0.097
788.04	1.567
788.22	0.424
788.41	0.673
788.59	1.128
788.78	0.394
788.96	0.289
789.15	0.096
789.34	0.879
789.52	0.212
789.71	0.341
789.89	0.663
790.08	0.899
790.26	0.686
790.45	0.000
790.63	0.071
790.82	0.701
791.00	1.872
791.19	0.708
791.38	1.482
791.56	2.352
791.75	1.129
791.93	2.132
792.12	2.183
792.30	1.412
792.49	2.094
792.67	2.223
792.86	2.309
793.04	2.710
793.23	2.573
793.41	2.213
793.60	2.723
793.78	4.055
793.97	3.545
794.15	4.172
794.34	2.711
794.52	3.343
794.71	3.560
794.89	3.036
795.08	2.030
795.26	2.842
795.45	3.163
795.63	2.979
795.82	4.041
796.00	3.040
796.19	3.160
796.37	2.931
796.56	3.058
796.74	4.583
796.93	4.700
797.11	3.584
797.30	3.887
797.48	3.919
797.67	4.387
797.85	4.062
798.04	5.272
798.22	4.214
798.41	3.773
798.59	4.472
798.77	4.770
798.96	4.448
799.14	4.904
799.33	5.488
799.51	4.801
799.70	6.166
799.88	6.054
800.07	5.582
800.25	6.534
800.44	6.571
800.62	7.994
800.80	8.298
800.99	9.200
801.17	9.165
801.36	9.306
801.54	9.365
801.73	10.097
801.91	10.635
802.10	10.968
802.28	11.789
802.46	13.474
802.65	12.737
802.83	14.038
803.02	14.516
803.20	15.030
803.39	15.088
803.57	16.652
803.75	16.736
803.94	18.063
804.12	18.814
804.31	18.176
804.49	19.830
804.67	21.643
804.86	23.048
805.04	22.908
805.23	25.000
805.41	25.751
805.59	24.752
805.78	23.994
805.96	25.384
806.15	24.804
806.33	25.004
806.51	25.532
806.70	25.868
806.88	25.990
807.07	26.696
807.25	27.750
807.43	28.018
807.62	28.792
807.80	28.615
807.99	28.882
808.17	28.476
808.35	28.412
808.54	29.939
808.72	28.334
808.90	29.038
809.09	27.941
809.27	29.121
809.46	30.357
809.64	29.192
809.82	29.867
810.01	29.165
810.19	30.429
810.37	28.273
810.56	28.265
810.74	29.503
810.92	29.531
811.11	28.954
811.29	28.691
811.48	27.955
811.66	28.441
811.84	28.661
812.03	28.185
812.21	28.192
812.39	26.691
812.58	26.270
812.76	25.540
812.94	24.586
813.13	24.298
813.31	24.368
813.49	23.541
813.68	23.617
813.86	23.510
814.04	21.148
814.23	21.457
814.41	20.038
814.59	20.400
814.78	20.006
814.96	19.163
815.14	18.919
815.33	18.300
815.51	18.164
815.69	19.014
815.87	17.458
816.06	16.284
816.24	16.314
816.42	15.889
816.61	16.078
816.79	15.794
816.97	16.226
817.16	15.667
817.34	14.780
817.52	13.308
817.70	12.943
817.89	13.922
818.07	14.581
818.25	13.358
818.44	12.511
818.62	12.647
818.80	12.737
818.98	12.464
819.17	11.508
819.35	13.460
819.53	12.530
819.72	12.592
819.90	13.247
820.08	13.261
820.26	12.893
820.45	13.621
820.63	13.266
820.81	13.749
820.99	13.693
821.18	14.823
821.36	14.987
821.54	14.033
821.73	15.434
821.91	14.431
822.09	14.345
822.27	14.169
822.46	15.280
822.64	15.529
822.82	13.853
823.00	15.182
823.19	14.923
823.37	15.949
823.55	16.559
823.73	17.005
823.91	17.851
824.10	18.249
824.28	19.058
824.46	20.410
824.64	19.719
824.83	18.742
825.01	19.107
825.19	17.822
825.37	19.056
825.56	18.751
825.74	17.083
825.92	16.034
826.10	14.668
826.28	15.660
826.47	15.708
826.65	13.930
826.83	14.488
827.01	14.846
827.19	12.747
827.38	13.530
827.56	14.111
827.74	13.868
827.92	14.049
828.10	13.885
828.29	12.047
828.47	14.459
828.65	12.353
828.83	13.684
829.01	10.681
829.20	13.143
829.38	12.083
829.56	12.620
829.74	11.437
829.92	12.120
830.10	11.920
830.29	11.552
830.47	12.098
830.65	11.736
830.83	11.437
831.01	11.979
831.20	12.953
831.38	12.308
831.56	11.292
831.74	12.127
831.92	14.234
832.10	14.747
832.29	16.865
832.47	17.397
832.65	18.336
832.83	17.625
833.01	19.038
833.19	21.392
833.37	20.896
833.56	22.431
833.74	22.247
833.92	24.229
834.10	25.432
834.28	24.592
834.46	26.023
834.64	26.733
834.83	27.224
835.01	27.088
835.19	28.378
835.37	30.211
835.55	30.190
835.73	31.375
835.91	30.501
836.09	32.083
836.28	33.589
836.46	35.220
836.64	34.689
836.82	35.646
837.00	34.608
837.18	34.953
837.36	37.566
837.54	36.967
837.72	37.987
837.91	38.622
838.09	41.076
838.27	40.841
838.45	44.265
838.63	43.460
838.81	43.750
838.99	42.182
839.17	43.491
839.35	44.970
839.53	43.703
839.72	43.183
839.90	39.928
840.08	39.636
840.26	40.738
840.44	39.832
840.62	41.637
840.80	38.765
840.98	39.720
841.16	39.220
841.34	37.066
841.52	36.799
841.70	36.100
841.89	33.967
842.07	32.956
842.25	31.890
842.43	32.202
842.61	31.484
842.79	32.483
842.97	31.758
843.15	30.392
843.33	31.548
843.51	30.465
843.69	29.906
843.87	30.482
844.05	31.203
844.23	31.079
844.41	33.797
844.59	30.562
844.77	30.845
844.95	28.808
845.13	29.060
845.31	27.279
845.50	29.134
845.68	27.142
845.86	25.427
846.04	27.714
846.22	25.501
846.40	27.413
846.58	27.806
846.76	30.037
846.94	29.050
847.12	30.085
847.30	27.805
847.48	28.544
847.66	30.991
847.84	29.761
848.02	28.322
848.20	30.757
848.38	31.401
848.56	32.508
848.74	32.139
848.92	34.328
849.10	32.614
849.28	33.619
849.46	35.012
849.64	35.034
849.82	35.714
850.00	34.777
850.18	35.253
850.36	37.226
850.54	35.529
850.72	36.422
850.90	36.886
851.08	37.521
851.26	39.958
851.44	38.325
851.62	40.472
851.80	44.250
851.98	40.801
852.16	44.938
852.34	42.765
852.52	43.016
852.70	42.230
852.87	44.120
853.05	44.885
853.23	42.520
853.41	40.651
853.59	44.075
853.77	45.515
853.95	45.788
854.13	44.462
854.31	42.475
854.49	41.464
854.67	40.531
854.85	43.373
855.03	41.966
855.21	39.915
855.39	40.170
855.57	42.884
855.75	43.872
855.93	40.165
856.11	37.320
856.28	41.167
856.46	42.903
856.64	41.602
856.82	40.368
857.00	42.721
857.18	40.278
857.36	39.411
857.54	37.930
857.72	41.119
857.90	40.414
858.08	39.867
858.26	37.708
858.44	41.111
858.61	35.498
858.79	37.425
858.97	40.338
859.15	38.432
859.33	37.998
859.51	38.230
859.69	37.336
859.87	37.639
860.05	35.154
860.23	35.249
860.40	35.804
860.58	34.357
860.76	34.927
860.94	35.307
861.12	34.614
861.30	33.715
861.48	35.299
861.66	35.663
861.84	33.691
862.01	37.709
862.19	38.383
862.37	35.132
862.55	36.101
862.73	37.600
862.91	38.767
863.09	36.673
863.27	37.097
863.44	35.240
863.62	37.197
863.80	36.034
863.98	35.139
864.16	38.119
864.34	36.985
864.52	37.619
864.69	38.197
864.87	37.005
865.05	37.250
865.23	39.844
865.41	38.253
865.59	41.658
865.76	36.829
865.94	39.075
866.12	37.897
866.30	39.602
866.48	39.855
866.66	39.563
866.83	41.246
867.01	41.985
867.19	41.189
867.37	42.041
867.55	39.509
867.73	39.222
867.90	40.498
868.08	40.721
868.26	43.072
868.44	44.511
868.62	44.977
868.79	45.800
868.97	47.883
869.15	49.109
869.33	49.943
869.51	49.768
869.69	51.554
869.86	52.081
870.04	51.017
870.22	51.042
870.40	51.879
870.57	52.187
870.75	48.932
870.93	50.335
871.11	49.432
871.29	51.281
871.46	46.090
871.64	50.682
871.82	50.824
872.00	48.911
872.18	49.075
872.35	49.500
872.53	48.227
872.71	47.391
872.89	45.025
873.06	48.301
873.24	47.766
873.42	47.082
873.60	46.400
873.77	46.659
873.95	48.502
874.13	46.867
874.31	45.999
874.49	43.691
874.66	45.930
874.84	45.871
875.02	45.615
875.20	46.302
875.37	44.945
875.55	45.992
875.73	48.750
875.91	50.102
876.08	49.259
876.26	52.053
876.44	52.852
876.61	51.967
876.79	53.445
876.97	51.216
877.15	51.585
877.32	50.484
877.50	51.410
877.68	51.333
877.86	52.014
878.03	53.289
878.21	52.466
878.39	53.525
878.56	56.205
878.74	53.011
878.92	54.415
879.10	56.810
879.27	53.938
879.45	51.825
879.63	56.160
879.80	56.634
879.98	58.964
880.16	58.457
880.34	55.212
880.51	58.686
880.69	60.653
880.87	57.440
881.04	54.396
881.22	56.712
881.40	57.306
881.57	57.675
881.75	58.941
881.93	62.282
882.10	59.710
882.28	62.096
882.46	60.653
882.63	61.430
882.81	60.155
882.99	61.823
883.16	60.077
883.34	59.326
883.52	57.418
883.69	57.877
883.87	57.902
884.05	57.573
884.22	57.201
884.40	58.521
884.58	58.992
884.75	59.342
884.93	61.620
885.11	59.845
885.28	60.853
885.46	61.183
885.64	63.163
885.81	61.447
885.99	63.266
886.17	62.449
886.34	66.572
886.52	60.014
886.70	63.678
886.87	60.846
887.05	58.785
887.22	59.931
887.40	59.579
887.58	59.619
887.75	58.921
887.93	57.502
888.11	55.416
888.28	54.444
888.46	55.718
888.63	54.018
888.81	51.466
888.99	51.985
889.16	55.121
889.34	57.999
889.51	55.149
889.69	54.173
889.87	56.851
890.04	55.474
890.22	54.719
890.39	54.750
890.57	54.858
890.75	54.654
890.92	54.760
891.10	53.521
891.27	56.162
891.45	54.555
891.63	53.584
891.80	54.575
891.98	51.643
892.15	52.074
892.33	50.868
892.51	51.016
892.68	49.058
892.86	49.298
893.03	47.523
893.21	45.509
893.38	47.278
893.56	46.217
893.74	48.248
893.91	48.199
894.09	46.201
894.26	41.421
894.44	45.464
894.61	42.800
894.79	39.475
894.96	40.326
895.14	42.296
895.32	39.011
895.49	37.844
895.67	39.135
895.84	38.294
896.02	40.260
896.19	40.107
896.37	40.207
896.54	39.618
896.72	43.341
896.89	39.460
897.07	41.985
897.25	41.044
897.42	43.792
897.60	44.048
897.77	42.739
897.95	44.797
898.12	46.071
898.30	45.518
898.47	46.849
898.65	46.719
898.82	47.329
899.00	48.062
899.17	47.097
899.35	49.230
899.52	47.661
899.70	47.372
899.87	45.706
900.05	47.634
900.22	47.385
900.40	46.715
900.57	44.627
900.75	48.923
900.92	50.673
901.10	49.556
901.27	47.232
901.45	48.528
901.62	50.168
901.80	45.367
901.97	48.169
902.15	48.538
902.32	47.745
902.50	47.646
902.67	47.018
902.85	46.385
903.02	49.583
903.20	49.193
903.37	51.391
903.54	47.755
903.72	49.257
903.89	44.930
904.07	50.376
904.24	48.373
904.42	48.861
904.59	45.672
904.77	44.920
904.94	44.176
905.12	43.679
905.29	43.752
905.47	41.337
905.64	41.353
905.81	43.310
905.99	44.936
906.16	44.548
906.34	46.548
906.51	43.823
906.69	44.329
906.86	42.198
907.03	43.606
907.21	45.945
907.38	43.642
907.56	41.258
907.73	42.943
907.91	42.977
908.08	42.226
908.25	39.406
908.43	42.105
908.60	44.234
908.78	44.003
908.95	41.544
909.13	43.902
909.30	43.086
909.47	42.382
909.65	40.626
909.82	40.554
910.00	41.214
910.17	40.625
910.34	42.406
910.52	41.920
910.69	40.954
910.87	40.206
911.04	47.114
911.21	41.898
911.39	41.821
911.56	41.811
911.73	41.638
911.91	44.791
912.08	42.252
912.26	43.603
912.43	46.177
912.60	48.087
912.78	50.894
912.95	51.079
913.13	50.653
913.30	50.465
913.47	55.577
913.65	53.400
913.82	50.923
913.99	50.024
914.17	49.305
914.34	52.825
914.51	52.626
914.69	50.509
914.86	48.163
915.03	52.801
915.21	52.658
915.38	55.217
915.56	59.390
915.73	60.803
915.90	57.571
916.08	61.641
916.25	60.381
916.42	55.769
916.60	61.085
916.77	60.156
916.94	60.664
917.12	58.690
917.29	58.711
917.46	64.206
917.64	58.668
917.81	61.727
917.98	60.903
918.16	59.437
918.33	58.147
918.50	56.190
918.67	57.408
918.85	60.917
919.02	58.202
919.19	59.288
919.37	61.889
919.54	59.695
919.71	58.320
919.89	63.298
920.06	65.165
920.23	59.001
920.41	58.566
920.58	59.841
920.75	57.994
920.92	59.685
921.10	61.149
921.27	56.132
921.44	59.680
921.62	60.813
921.79	56.852
921.96	58.562
922.13	57.620
922.31	57.052
922.48	59.204
922.65	55.588
922.82	56.382
923.00	52.670
923.17	56.855
923.34	57.729
923.52	55.437
923.69	58.921
923.86	52.095
924.03	55.461
924.21	56.739
924.38	55.942
924.55	58.010
924.72	58.520
924.90	63.649
925.07	64.702
925.24	62.801
925.41	68.666
925.59	62.730
925.76	59.669
925.93	67.868
926.10	69.147
926.28	64.398
926.45	67.425
926.62	58.424
926.79	61.472
926.96	60.885
927.14	60.802
927.31	58.587
927.48	63.515
927.65	63.218
927.83	65.295
928.00	57.918
928.17	64.833
928.34	61.698
928.51	63.476
928.69	61.911
928.86	65.901
929.03	63.234
929.20	67.902
929.37	62.890
929.55	68.147
929.72	66.766
929.89	71.350
930.06	69.313
930.23	61.435
930.41	65.856
930.58	66.724
930.75	67.887
930.92	65.340
931.09	66.367
931.27	64.912
931.44	61.466
931.61	64.461
931.78	63.918
931.95	64.363
932.12	61.069
932.30	58.180
932.47	58.138
932.64	60.326
932.81	58.231
932.98	59.339
933.16	54.577
933.33	54.965
933.50	55.292
933.67	55.877
933.84	53.888
934.01	51.979
934.18	47.019
934.36	51.141
934.53	48.850
934.70	45.712
934.87	47.678
935.04	42.668
935.21	48.155
935.38	42.484
935.56	47.976
935.73	40.000
935.90	49.239
936.07	43.469
936.24	45.117
936.41	40.347
936.58	43.554
936.76	40.328
936.93	41.618
937.10	47.216
937.27	41.391
937.44	42.254
937.61	43.220
937.78	34.115
937.95	43.041
938.13	40.154
938.30	40.989
938.47	34.560
938.64	37.640
938.81	35.791
938.98	36.959
939.15	36.000
939.32	37.794
939.49	31.828
939.66	33.731
939.84	34.663
940.01	39.001
940.18	34.611
940.35	31.592
940.52	37.757
940.69	32.411
940.86	36.948
941.03	33.015
941.20	32.489
941.37	31.716
941.54	33.373
941.71	32.069
941.89	36.469
942.06	31.518
942.23	33.498
942.40	37.586
942.57	38.702
942.74	38.101
942.91	35.197
943.08	42.259
943.25	40.858
943.42	36.236
943.59	38.663
943.76	39.946
943.93	43.247
944.10	44.577
944.27	37.936
944.44	43.282
944.61	39.477
944.79	32.817
944.96	40.267
945.13	39.244
945.30	43.225
945.47	40.411
945.64	39.130
945.81	45.152
945.98	36.000
946.15	43.029
946.32	44.924
946.49	36.289
946.66	44.086
946.83	33.379
947.00	45.455
947.17	41.802
947.34	41.048
947.51	46.708
947.68	42.587
947.85	43.844
948.02	40.357
948.19	41.335
948.36	42.809
948.53	36.505
948.70	48.029
948.87	38.424
949.04	41.543
949.21	34.653
949.38	45.918
949.55	41.156
949.72	39.044
949.89	34.844
950.06	41.446
950.23	43.603
950.40	27.363
950.57	36.396
950.74	46.466
950.91	35.110
951.08	40.418
951.25	46.578
951.42	48.771
951.59	41.230
951.76	35.960
951.93	39.928
952.10	38.587
952.27	34.211
952.44	24.082
952.61	37.204
952.77	30.361
952.94	35.772
953.11	30.286
953.28	39.623
953.45	29.268
953.62	26.134
953.79	37.407
953.96	28.516
954.13	36.590
954.30	30.645
954.47	38.407
954.64	37.692
954.81	31.992
954.98	34.070
955.15	30.800
955.32	33.392
955.49	32.290
955.65	29.200
955.82	31.772
955.99	29.947
956.16	30.769
956.33	35.586
956.50	34.047
956.67	30.382
956.84	33.333
957.01	38.900
957.18	31.809
957.35	37.097
957.52	28.514
957.68	41.964
957.85	41.915
958.02	28.822
958.19	32.439
958.36	43.602
958.53	38.021
958.70	39.186
958.87	43.400
959.04	36.410
959.21	38.106
959.37	45.974
959.54	38.161
959.71	41.232
959.88	42.950
960.05	40.855
960.22	45.146
960.39	27.778
960.56	43.860
960.72	28.482
960.89	35.669
961.06	36.667
961.23	34.240
961.40	37.319
961.57	27.315
961.74	35.178
961.90	46.667
962.07	37.342
962.24	33.460
962.41	32.450
962.58	34.402
962.75	34.728
962.92	41.612
963.08	29.663
963.25	37.093
963.42	28.297
963.59	41.314
963.76	39.729
963.93	25.229
964.10	47.674
964.26	31.172
964.43	33.487
964.60	46.588
964.77	41.898
964.94	44.811
965.10	39.050
965.27	28.604
965.44	42.825
965.61	45.924
965.78	42.273
965.95	35.800
966.11	51.843
966.28	40.997
966.45	34.530
966.62	43.750
966.79	45.767
966.95	45.249
967.12	43.468
967.29	40.590
967.46	41.629
967.63	37.234
967.79	39.913
967.96	47.124
968.13	37.232
968.30	30.709
968.47	38.958
968.63	42.217
968.80	34.669
968.97	44.875
969.14	44.356
969.31	39.744
969.47	41.031
969.64	39.880
969.81	43.340
969.98	36.765
970.14	41.215
970.31	38.043
970.48	42.188
970.65	48.235
970.81	39.844
970.98	42.612
971.15	40.881
971.32	41.111
971.48	33.626
971.65	43.666
971.82	39.052
971.99	39.683
972.15	38.242
972.32	37.793
972.49	34.328
972.66	39.732
972.82	40.858
972.99	42.118
973.16	38.889
973.33	40.284
973.49	36.272
973.66	42.593
973.83	41.837
974.00	41.892
974.16	45.000
974.33	50.559
974.50	44.444
974.67	47.901
974.83	49.153
975.00	38.756
975.17	50.115
975.33	48.364
975.50	38.441
975.67	49.539
975.84	55.128
976.00	48.706
976.17	49.647
976.34	41.709
976.50	66.298
976.67	44.495
976.84	42.857
977.00	48.700
977.17	66.479
977.34	53.589
977.50	51.743
977.67	50.685
977.84	44.126
978.01	59.948
978.17	63.224
978.34	61.538
978.51	53.269
978.67	59.174
978.84	50.575
979.01	53.302
979.17	54.947
979.34	45.337
979.51	48.000
979.67	66.262
979.84	56.770
980.01	57.859
980.17	73.851
980.34	52.865
980.51	57.968
980.67	57.922
980.84	52.165
981.01	50.758
981.17	45.686
981.34	44.842
981.50	47.837
981.67	59.057
981.84	61.125
982.00	51.289
982.17	49.873
982.34	58.645
982.50	62.602
982.67	57.623
982.84	51.402
983.00	59.008
983.17	52.523
983.33	59.556
983.50	56.054
983.67	50.220
983.83	48.998
984.00	64.904
984.17	41.845
984.33	55.750
984.50	48.837
984.66	46.392
984.83	49.786
985.00	40.667
985.16	40.506
985.33	36.818
985.49	41.826
985.66	48.064
985.83	52.254
985.99	49.689
986.16	42.466
986.32	42.169
986.49	47.511
986.66	45.558
986.82	49.782
986.99	49.184
987.15	50.000
987.32	65.566
987.49	49.774
987.65	46.620
987.82	52.320
987.98	51.174
988.15	55.216
988.31	52.719
988.48	58.531
988.65	49.735
988.81	52.796
988.98	38.067
989.14	56.398
989.31	58.103
989.47	58.173
989.64	45.721
989.80	60.563
989.97	51.515
990.14	51.489
990.30	56.490
990.47	64.806
990.63	51.740
990.80	65.979
990.96	53.226
991.13	61.161
991.29	63.895
991.46	72.684
991.62	59.535
991.79	65.762
991.95	54.853
992.12	56.689
992.29	53.659
992.45	65.367
992.62	47.534
992.78	48.008
992.95	83.493
993.11	60.403
993.28	69.927
993.44	60.613
993.61	62.241
993.77	75.654
993.94	58.581
994.10	68.776
994.27	58.191
994.43	73.629
994.60	71.500
994.76	73.672
994.93	67.882
995.09	78.437
995.26	74.029
995.42	80.049
995.59	68.865
995.75	63.657
995.92	64.000
996.08	61.882
996.25	69.877
996.41	61.765
996.58	60.502
996.74	59.236
996.91	63.185
997.07	63.659
997.23	62.010
997.40	53.422
997.56	47.664
997.73	64.750
997.89	52.573
998.06	47.357
998.22	61.179
998.39	49.790
998.55	52.194
998.72	51.168
998.88	65.750
999.05	53.396
999.21	57.518
999.37	65.691
999.54	53.788
999.70	61.269
999.87	47.236
1000.03	62.329
1000.20	59.615
1000.36	47.482
1000.52	55.858
1000.69	53.333
1000.85	53.780
1001.02	39.954
1001.18	41.300
1001.35	63.907
1001.51	53.229
1001.67	47.884
1001.84	45.148
1002.00	44.958
1002.17	47.477
1002.33	47.541
1002.50	45.824
1002.66	65.166
1002.82	56.533
1002.99	38.133
1003.15	66.667
1003.32	57.644
1003.48	45.455
1003.64	54.198
1003.81	60.955
1003.97	48.402
1004.14	61.848
1004.30	46.683
1004.46	60.574
1004.63	51.299
1004.79	48.158
1004.95	48.329
1005.12	67.308
1005.28	41.623
1005.45	55.991
1005.61	52.323
1005.77	53.448
1005.94	57.175
1006.10	61.461
1006.26	61.151
1006.43	48.815
1006.59	49.157
1006.76	50.923
1006.92	52.471
1007.08	69.378
1007.25	54.967
1007.41	43.165
1007.57	41.667
1007.74	50.378
1007.90	59.021
1008.06	47.917
1008.23	63.077
1008.39	51.464
1008.55	42.627
1008.72	49.377
1008.88	49.778
1009.04	48.596
1009.21	41.527
1009.37	50.000
1009.53	61.871
1009.70	55.645
1009.86	62.434
1010.02	42.141
1010.19	51.143
1010.35	51.032
1010.51	53.699
1010.68	47.222
1010.84	59.055
1011.00	54.103
1011.17	59.003
1011.33	50.122
1011.49	53.672
1011.66	51.026
1011.82	49.361
1011.98	44.109
1012.14	55.890
1012.31	47.493
1012.47	54.987
1012.63	45.402
1012.80	54.233
1012.96	50.000
1013.12	58.889
1013.29	54.571
1013.45	44.125
1013.61	36.434
1013.77	41.602
1013.94	50.653
1014.10	44.545
1014.26	60.891
1014.43	47.802
1014.59	45.380
1014.75	41.969
1014.91	45.767
1015.08	37.772
1015.24	40.988
1015.40	35.750
1015.56	36.053
1015.73	46.667
1015.89	40.591
1016.05	33.886
1016.21	39.589
1016.38	36.193
1016.54	44.444
1016.70	38.824
1016.86	35.920
1017.03	44.414
1017.19	41.646
1017.35	33.491
1017.51	54.521
1017.68	41.299
1017.84	33.882
1018.00	54.569
1018.16	37.500
1018.33	32.303
1018.49	37.778
1018.65	34.605
1018.81	38.226
1018.97	42.210
1019.14	34.060
1019.30	50.142
1019.46	33.677
1019.62	18.750
1019.79	31.348
1019.95	44.730
1020.11	33.956
1020.27	33.770
1020.43	38.246
1020.60	50.758
1020.76	64.419
1020.92	46.779
1021.08	44.408
1021.24	37.888
1021.41	46.667
1021.57	42.241
1021.73	37.377
1021.89	53.947
1022.05	42.857
1022.21	32.500
1022.38	43.143
1022.54	47.278
1022.70	27.667
1022.86	38.617
1023.02	41.159
1023.19	43.750
1023.35	38.907
1023.51	33.974
1023.67	41.860
1023.83	22.519
1023.99	45.070
1024.16	21.032
1024.32	40.129
1024.48	42.199
1024.64	28.808
1024.80	39.716
1024.96	49.074
1025.12	31.661
1025.29	38.869
1025.45	50.000
1025.61	30.968
1025.77	40.072
1025.93	52.795
1026.09	45.174
1026.26	47.297
1026.42	46.311
1026.58	50.865
1026.74	43.529
1026.90	39.275
1027.06	29.373
1027.22	36.242
1027.38	43.617
1027.55	62.136
1027.71	42.442
1027.87	46.780
1028.03	35.458
1028.19	36.271
1028.35	46.125
1028.51	46.429
1028.67	28.517
1028.83	39.394
1029.00	40.000
1029.16	34.063
1029.32	40.977
1029.48	41.406
1029.64	40.984
1029.80	43.496
1029.96	32.804
1030.12	56.777
1030.28	35.088
1030.44	56.746
1030.61	47.257
1030.77	37.705
1030.93	49.603
1031.09	31.765
1031.25	48.731
1031.41	60.241
1031.57	56.962
1031.73	35.833
1031.89	53.357
1032.05	47.566
1032.21	45.714
1032.37	36.331
1032.53	55.805
1032.69	46.781
1032.86	50.481
1033.02	44.518
1033.18	45.000
1033.34	32.616
1033.50	37.824
1033.66	50.566
1033.82	56.777
1033.98	41.379
1034.14	56.682
1034.30	48.092
1034.46	61.654
1034.62	41.176
1034.78	41.912
1034.94	36.823
1035.10	55.340
1035.26	36.082
1035.42	51.325
1035.58	36.462
1035.74	51.867
1035.90	73.659
1036.06	32.210
1036.22	26.718
1036.38	48.899
1036.54	52.459
1036.70	48.750
1036.86	38.660
1037.02	49.084
1037.18	67.619
1037.34	37.698
1037.50	55.340
1037.66	26.842
1037.82	52.778
1037.98	68.459
1038.14	52.486
1038.30	45.769
1038.46	49.281
1038.62	46.479
1038.78	48.077
1038.94	72.414
1039.10	69.856
1039.26	64.224
1039.42	50.000
1039.58	37.278
1039.74	44.351
1039.90	43.500
1040.06	61.463
>>>>>End Processed Spectral Data<<<<<
