SpectraSuite Data File
++++++++++++++++++++++++++++++++++++
Date: Mon Mar 27 19:51:47 EEST 2017
User: TheoProf
Dark Spectrum Present: Yes
Reference Spectrum Present: Yes
Number of Sampled Component Spectra: 1
Spectrometers: USB4C02475
Integration Time (usec): 426341 (USB4C02475)
Spectra Averaged: 1 (USB4C02475)
Boxcar Smoothing: 0 (USB4C02475)
Correct for Electrical Dark: No (USB4C02475)
Strobe/Lamp Enabled: No (USB4C02475)
Correct for Detector Non-linearity: No (USB4C02475)
Correct for Stray Light: No (USB4C02475)
Number of Pixels in Processed Spectrum: 3648
>>>>>Begin Processed Spectral Data<<<<<
344.91	82.353
345.13	82.353
345.35	82.353
345.57	0.000
345.79	25.926
346.00	-400.000
346.22	-81.579
346.44	266.667
346.66	558.333
346.87	203.333
347.09	0.000
347.31	-469.231
347.53	-71.429
347.74	21.875
347.96	4.167
348.18	200.000
348.40	800.000
348.61	-52.000
348.83	-93.750
349.05	-200.000
349.27	52.857
349.48	-125.000
349.70	485.714
349.92	960.000
350.14	-257.143
350.35	1575.000
350.57	45.455
350.79	104.762
351.01	93.878
351.22	105.405
351.44	-1014.286
351.66	66.667
351.87	89.189
352.09	88.060
352.31	117.568
352.53	-20.000
352.74	89.855
352.96	147.368
353.18	14.583
353.40	119.149
353.61	286.957
353.83	69.014
354.05	425.000
354.26	-1200.000
354.48	900.000
354.70	320.000
354.92	71.233
355.13	185.714
355.35	-727.273
355.57	-8.333
355.78	126.316
356.00	608.333
356.22	116.129
356.44	1125.000
356.65	1120.000
356.87	220.000
357.09	510.000
357.30	221.739
357.52	64.286
357.74	20.000
357.95	143.750
358.17	-600.000
358.39	112.500
358.60	1175.000
358.82	50.000
359.04	156.897
359.26	102.128
359.47	240.741
359.69	75.000
359.91	325.806
360.12	255.263
360.34	-200.000
360.56	142.857
360.77	-1000.000
360.99	-945.455
361.21	117.778
361.42	-1400.000
361.64	-100.000
361.86	153.571
362.07	500.000
362.29	70.000
362.51	140.000
362.72	180.000
362.94	98.214
363.16	310.000
363.37	275.000
363.59	192.857
363.81	148.649
364.02	81.250
364.24	7600.000
364.46	185.185
364.67	194.444
364.89	131.818
365.11	0.000
365.32	83.333
365.54	106.250
365.76	-104.762
365.97	300.000
366.19	172.222
366.41	26.923
366.62	80.000
366.84	67.500
367.05	284.848
367.27	1533.333
367.49	35.714
367.70	230.435
367.92	117.073
368.14	49.231
368.35	223.077
368.57	63.855
368.79	73.626
369.00	8.772
369.22	68.000
369.43	89.011
369.65	700.000
369.87	90.909
370.08	41.667
370.30	113.043
370.51	253.846
370.73	70.130
370.95	436.364
371.16	-150.000
371.38	180.000
371.60	306.250
371.81	284.615
372.03	1450.000
372.24	145.714
372.46	37.037
372.68	115.493
372.89	102.667
373.11	122.772
373.32	2.564
373.54	400.000
373.76	-4.545
373.97	4.167
374.19	108.861
374.40	355.882
374.62	112.121
374.84	-0.000
375.05	164.286
375.27	352.941
375.48	200.000
375.70	235.484
375.92	56.897
376.13	-633.333
376.35	60.714
376.56	104.082
376.78	38.000
376.99	203.030
377.21	23.256
377.43	135.484
377.64	110.000
377.86	10.000
378.07	93.651
378.29	73.810
378.51	63.529
378.72	166.667
378.94	48.718
379.15	7.368
379.37	51.786
379.58	7.692
379.80	167.213
380.01	100.000
380.23	25.000
380.45	66.667
380.66	-293.333
380.88	82.353
381.09	51.064
381.31	85.897
381.52	54.615
381.74	64.474
381.95	54.762
382.17	87.500
382.39	50.000
382.60	-1.429
382.82	50.000
383.03	116.456
383.25	-39.474
383.46	138.182
383.68	48.485
383.89	64.865
384.11	79.545
384.32	-9.677
384.54	-76.190
384.76	110.753
384.97	180.645
385.19	5.714
385.40	53.425
385.62	78.571
385.83	8.235
386.05	-6.897
386.26	44.628
386.48	19.780
386.69	37.333
386.91	37.234
387.12	94.444
387.34	14.414
387.55	-22.222
387.77	34.884
387.98	35.461
388.20	27.103
388.41	-1.190
388.63	-0.758
388.84	20.225
389.06	48.571
389.27	25.373
389.49	25.490
389.70	35.115
389.92	42.657
390.13	-7.895
390.35	12.214
390.56	46.094
390.78	83.007
390.99	16.495
391.21	-73.529
391.42	26.316
391.64	74.126
391.85	28.302
392.07	9.402
392.28	-8.228
392.50	38.542
392.71	1.575
392.93	43.182
393.14	23.256
393.36	9.016
393.57	25.000
393.79	39.024
394.00	18.261
394.22	32.759
394.43	44.211
394.65	42.778
394.86	44.186
395.08	34.426
395.29	14.103
395.50	25.258
395.72	20.859
395.93	48.387
396.15	40.741
396.36	3.922
396.58	-13.014
396.79	19.018
397.01	11.905
397.22	25.258
397.44	18.357
397.65	-1.923
397.87	3.825
398.08	33.987
398.29	17.886
398.51	16.915
398.72	17.857
398.94	12.549
399.15	0.518
399.37	8.671
399.58	19.214
399.80	-1.852
400.01	3.158
400.22	7.143
400.44	27.511
400.65	13.889
400.87	26.840
401.08	25.758
401.30	9.259
401.51	-7.389
401.72	27.426
401.94	36.250
402.15	15.753
402.37	-5.000
402.58	12.500
402.80	0.794
403.01	-26.540
403.22	18.321
403.44	20.423
403.65	20.000
403.87	-11.417
404.08	17.966
404.30	-1.674
404.51	29.268
404.72	16.511
404.94	11.207
405.15	11.417
405.37	18.182
405.58	0.955
405.79	7.071
406.01	9.375
406.22	-5.678
406.44	-1.038
406.65	11.233
406.86	-7.143
407.08	15.161
407.29	7.527
407.51	-10.335
407.72	5.825
407.93	14.481
408.15	8.730
408.36	8.226
408.58	5.238
408.79	-9.552
409.00	2.895
409.22	8.018
409.43	-3.359
409.64	6.905
409.86	1.675
410.07	8.791
410.29	12.639
410.50	2.489
410.71	0.473
410.93	3.053
411.14	12.500
411.35	4.936
411.57	4.462
411.78	16.097
412.00	4.924
412.21	-4.980
412.42	2.158
412.64	3.906
412.85	1.416
413.06	-3.369
413.28	6.049
413.49	5.421
413.70	2.523
413.92	6.942
414.13	-5.128
414.34	7.273
414.56	2.946
414.77	-0.796
414.98	2.927
415.20	5.057
415.41	-1.118
415.63	-1.838
415.84	11.614
416.05	-9.446
416.27	2.157
416.48	2.135
416.69	0.591
416.91	6.795
417.12	1.550
417.33	6.505
417.55	-0.267
417.76	2.029
417.97	1.477
418.19	3.577
418.40	-2.361
418.61	5.628
418.83	4.192
419.04	8.272
419.25	-3.239
419.46	2.577
419.68	5.529
419.89	1.814
420.10	1.009
420.32	4.827
420.53	4.422
420.74	0.604
420.96	1.681
421.17	3.281
421.38	4.054
421.60	-1.378
421.81	-1.722
422.02	4.687
422.23	5.453
422.45	4.661
422.66	4.067
422.87	4.205
423.09	5.579
423.30	4.463
423.51	0.908
423.73	1.283
423.94	3.337
424.15	-0.519
424.36	2.546
424.58	4.932
424.79	2.069
425.00	2.927
425.22	-5.076
425.43	3.025
425.64	1.690
425.85	-1.410
426.07	6.130
426.28	4.920
426.49	-1.530
426.71	3.933
426.92	-0.833
427.13	1.560
427.34	4.518
427.56	2.842
427.77	3.097
427.98	-1.709
428.19	7.720
428.41	1.247
428.62	7.549
428.83	5.695
429.04	4.116
429.26	8.599
429.47	4.815
429.68	7.821
429.89	2.997
430.11	4.086
430.32	4.699
430.53	2.776
430.74	3.325
430.96	8.197
431.17	6.074
431.38	1.282
431.59	0.523
431.81	6.408
432.02	2.131
432.23	2.406
432.44	1.442
432.66	3.186
432.87	5.407
433.08	4.148
433.29	3.360
433.51	1.757
433.72	7.968
433.93	4.937
434.14	13.032
434.35	22.336
434.57	31.395
434.78	40.386
434.99	45.514
435.20	57.651
435.42	60.516
435.63	69.551
435.84	72.503
436.05	81.569
436.26	78.038
436.48	83.395
436.69	82.567
436.90	84.184
437.11	79.903
437.32	89.695
437.54	84.244
437.75	82.009
437.96	87.226
438.17	83.047
438.38	88.983
438.60	84.602
438.81	88.771
439.02	88.941
439.23	87.521
439.44	92.048
439.66	88.800
439.87	96.043
440.08	84.392
440.29	87.031
440.50	89.296
440.72	87.046
440.93	89.232
441.14	83.453
441.35	85.691
441.56	81.267
441.77	86.317
441.99	80.115
442.20	86.968
442.41	88.926
442.62	87.209
442.83	86.752
443.04	87.869
443.26	89.968
443.47	91.480
443.68	92.439
443.89	88.830
444.10	89.766
444.31	91.508
444.53	83.824
444.74	88.336
444.95	92.227
445.16	90.254
445.37	90.062
445.58	92.471
445.80	93.490
446.01	92.505
446.22	84.710
446.43	89.945
446.64	88.114
446.85	91.017
447.06	87.731
447.28	90.729
447.49	92.184
447.70	90.891
447.91	92.832
448.12	95.867
448.33	93.884
448.54	89.581
448.76	91.093
448.97	90.662
449.18	88.605
449.39	90.891
449.60	87.152
449.81	88.600
450.02	92.810
450.23	90.280
450.45	85.165
450.66	85.412
450.87	90.645
451.08	86.586
451.29	91.702
451.50	91.813
451.71	92.704
451.92	89.014
452.13	90.531
452.35	88.652
452.56	93.887
452.77	85.683
452.98	90.651
453.19	91.376
453.40	88.865
453.61	96.029
453.82	86.943
454.03	87.042
454.25	89.646
454.46	91.619
454.67	91.018
454.88	90.732
455.09	92.547
455.30	91.361
455.51	89.138
455.72	91.790
455.93	89.430
456.14	95.336
456.35	91.277
456.56	95.353
456.78	86.902
456.99	88.383
457.20	89.967
457.41	86.483
457.62	86.017
457.83	91.386
458.04	89.876
458.25	89.218
458.46	87.168
458.67	92.128
458.88	87.945
459.09	88.447
459.30	87.256
459.51	93.326
459.73	93.140
459.94	89.580
460.15	88.267
460.36	92.126
460.57	88.516
460.78	88.982
460.99	89.594
461.20	86.763
461.41	93.526
461.62	88.806
461.83	90.365
462.04	89.165
462.25	90.988
462.46	90.212
462.67	87.625
462.88	90.013
463.09	89.948
463.30	89.757
463.51	89.071
463.72	87.713
463.93	84.350
464.15	85.018
464.36	86.422
464.57	85.334
464.78	88.210
464.99	81.304
465.20	86.574
465.41	85.628
465.62	87.365
465.83	84.879
466.04	84.152
466.25	83.485
466.46	81.490
466.67	85.138
466.88	80.944
467.09	74.785
467.30	69.512
467.51	65.157
467.72	54.645
467.93	47.477
468.14	38.004
468.35	31.389
468.56	24.363
468.77	18.781
468.98	15.627
469.19	11.566
469.40	6.968
469.61	5.150
469.82	3.478
470.03	3.386
470.24	2.501
470.45	3.170
470.66	1.979
470.87	1.471
471.08	1.827
471.29	0.941
471.50	3.301
471.71	0.281
471.92	1.355
472.13	0.840
472.34	2.103
472.55	2.272
472.76	1.821
472.97	2.130
473.18	1.117
473.39	2.432
473.60	0.765
473.81	1.392
474.01	1.215
474.22	-0.758
474.43	1.528
474.64	1.742
474.85	1.270
475.06	1.044
475.27	-0.122
475.48	1.125
475.69	0.957
475.90	1.632
476.11	0.961
476.32	2.303
476.53	0.713
476.74	0.855
476.95	1.755
477.16	1.577
477.37	-0.278
477.58	1.772
477.79	0.904
478.00	0.416
478.21	1.313
478.41	1.256
478.62	0.159
478.83	2.000
479.04	1.146
479.25	1.161
479.46	0.980
479.67	0.707
479.88	0.337
480.09	1.810
480.30	0.381
480.51	1.303
480.72	1.802
480.93	0.211
481.14	1.310
481.34	0.987
481.55	1.694
481.76	0.700
481.97	1.640
482.18	1.612
482.39	1.089
482.60	0.426
482.81	0.721
483.02	0.528
483.23	0.725
483.44	0.466
483.65	0.948
483.85	1.319
484.06	0.855
484.27	0.928
484.48	1.091
484.69	0.980
484.90	-0.152
485.11	0.548
485.32	0.514
485.53	0.759
485.73	0.422
485.94	1.397
486.15	1.468
486.36	0.991
486.57	0.836
486.78	1.248
486.99	1.288
487.20	1.042
487.41	1.249
487.61	1.339
487.82	0.405
488.03	1.020
488.24	1.014
488.45	0.305
488.66	0.657
488.87	1.436
489.08	0.805
489.28	1.640
489.49	0.740
489.70	0.447
489.91	0.815
490.12	0.983
490.33	1.441
490.54	0.651
490.74	1.296
490.95	0.620
491.16	0.845
491.37	0.351
491.58	0.556
491.79	0.584
492.00	0.819
492.20	0.961
492.41	0.714
492.62	0.715
492.83	0.818
493.04	0.748
493.25	1.561
493.45	1.213
493.66	1.012
493.87	0.738
494.08	0.512
494.29	1.219
494.50	0.325
494.70	0.692
494.91	1.278
495.12	0.927
495.33	0.745
495.54	1.082
495.75	0.622
495.95	0.493
496.16	0.677
496.37	0.603
496.58	1.226
496.79	0.818
496.99	1.149
497.20	0.877
497.41	1.512
497.62	0.423
497.83	0.315
498.04	0.222
498.24	0.528
498.45	0.778
498.66	0.469
498.87	1.336
499.08	1.611
499.28	0.358
499.49	0.842
499.70	0.543
499.91	0.595
500.12	0.680
500.32	0.532
500.53	0.090
500.74	1.298
500.95	0.897
501.15	1.007
501.36	0.952
501.57	0.635
501.78	0.886
501.99	0.697
502.19	0.369
502.40	1.209
502.61	0.878
502.82	0.922
503.02	0.557
503.23	0.839
503.44	0.792
503.65	0.976
503.86	0.793
504.06	0.865
504.27	0.509
504.48	1.270
504.69	0.967
504.89	0.627
505.10	0.546
505.31	0.529
505.52	1.073
505.72	1.202
505.93	0.635
506.14	0.844
506.35	1.134
506.55	1.210
506.76	1.340
506.97	1.126
507.18	1.049
507.38	1.548
507.59	1.078
507.80	1.021
508.01	1.111
508.21	1.224
508.42	1.395
508.63	1.012
508.84	1.196
509.04	1.244
509.25	1.128
509.46	1.071
509.67	1.422
509.87	1.246
510.08	1.537
510.29	0.658
510.49	1.289
510.70	1.826
510.91	1.159
511.12	1.438
511.32	1.447
511.53	1.292
511.74	1.283
511.94	1.094
512.15	1.700
512.36	1.705
512.57	2.074
512.77	2.085
512.98	2.822
513.19	4.347
513.39	8.291
513.60	13.413
513.81	20.409
514.01	29.454
514.22	37.987
514.43	46.655
514.64	53.811
514.84	59.197
515.05	65.157
515.26	70.926
515.46	74.438
515.67	77.963
515.88	79.133
516.08	81.677
516.29	83.154
516.50	83.739
516.70	85.036
516.91	86.800
517.12	87.045
517.32	87.819
517.53	89.104
517.74	87.942
517.95	88.495
518.15	89.332
518.36	88.715
518.57	89.826
518.77	88.501
518.98	89.878
519.19	90.343
519.39	91.845
519.60	90.530
519.80	90.270
520.01	90.456
520.22	91.579
520.42	90.195
520.63	89.728
520.84	87.761
521.04	88.086
521.25	86.117
521.46	88.382
521.66	87.418
521.87	87.839
522.08	88.500
522.28	90.796
522.49	90.733
522.70	90.677
522.90	91.583
523.11	92.335
523.31	92.761
523.52	90.196
523.73	92.477
523.93	91.236
524.14	91.053
524.35	91.541
524.55	90.189
524.76	92.210
524.97	92.053
525.17	91.582
525.38	92.036
525.58	93.453
525.79	92.678
526.00	92.225
526.20	92.567
526.41	90.421
526.61	89.419
526.82	90.989
527.03	90.995
527.23	90.658
527.44	92.571
527.64	91.120
527.85	91.751
528.06	91.111
528.26	90.796
528.47	92.947
528.68	92.516
528.88	94.300
529.09	93.556
529.29	95.217
529.50	94.236
529.70	94.369
529.91	93.202
530.12	93.939
530.32	91.770
530.53	93.605
530.73	93.946
530.94	93.298
531.15	94.659
531.35	92.927
531.56	91.219
531.76	93.310
531.97	92.911
532.17	93.554
532.38	93.201
532.59	93.506
532.79	94.027
533.00	92.943
533.20	93.910
533.41	92.505
533.61	93.221
533.82	93.532
534.03	92.795
534.23	92.420
534.44	93.288
534.64	93.399
534.85	93.187
535.05	92.383
535.26	92.781
535.46	93.253
535.67	93.626
535.88	92.022
536.08	92.819
536.29	91.898
536.49	93.687
536.70	92.206
536.90	92.961
537.11	92.079
537.31	90.744
537.52	91.769
537.72	91.756
537.93	91.401
538.13	91.619
538.34	92.437
538.55	91.946
538.75	91.391
538.96	90.681
539.16	90.498
539.37	90.310
539.57	90.712
539.78	87.920
539.98	86.533
540.19	81.150
540.39	74.507
540.60	66.899
540.80	58.835
541.01	51.504
541.21	43.691
541.42	37.079
541.62	30.628
541.83	25.129
542.03	20.017
542.24	15.934
542.44	12.884
542.65	9.605
542.85	7.406
543.06	5.576
543.26	3.912
543.47	2.701
543.67	1.797
543.88	1.690
544.08	1.317
544.29	1.560
544.49	1.102
544.70	0.930
544.90	0.877
545.11	0.599
545.31	0.912
545.52	0.468
545.72	0.956
545.93	0.757
546.13	1.103
546.34	0.862
546.54	0.456
546.75	0.537
546.95	0.704
547.15	0.664
547.36	0.521
547.56	0.582
547.77	1.127
547.97	0.261
548.18	0.412
548.38	0.438
548.59	0.204
548.79	0.358
549.00	0.399
549.20	0.831
549.41	0.388
549.61	0.800
549.81	0.383
550.02	0.640
550.22	0.573
550.43	0.445
550.63	0.630
550.84	0.637
551.04	0.509
551.25	0.455
551.45	0.726
551.65	0.680
551.86	0.456
552.06	0.997
552.27	0.636
552.47	0.222
552.68	0.498
552.88	0.108
553.08	0.371
553.29	0.680
553.49	0.824
553.70	0.557
553.90	0.498
554.11	0.649
554.31	0.289
554.51	0.564
554.72	0.373
554.92	0.437
555.13	0.305
555.33	0.366
555.53	0.462
555.74	0.325
555.94	0.741
556.15	0.591
556.35	0.132
556.56	0.723
556.76	0.411
556.96	0.299
557.17	0.289
557.37	0.638
557.58	0.414
557.78	0.294
557.98	0.157
558.19	0.457
558.39	0.337
558.59	0.555
558.80	0.290
559.00	0.527
559.21	0.565
559.41	0.243
559.61	0.306
559.82	0.487
560.02	0.038
560.23	0.594
560.43	0.705
560.63	0.360
560.84	0.496
561.04	0.427
561.24	0.414
561.45	0.316
561.65	0.504
561.85	0.280
562.06	0.418
562.26	0.271
562.47	0.446
562.67	0.302
562.87	0.305
563.08	0.416
563.28	0.546
563.48	0.442
563.69	0.258
563.89	0.481
564.09	0.499
564.30	0.518
564.50	0.452
564.70	0.355
564.91	0.372
565.11	0.411
565.31	0.158
565.52	0.549
565.72	0.255
565.92	0.307
566.13	0.293
566.33	0.747
566.53	0.791
566.74	0.562
566.94	0.490
567.14	0.315
567.35	0.374
567.55	0.363
567.75	0.346
567.96	0.782
568.16	0.762
568.36	0.645
568.57	0.370
568.77	0.693
568.97	0.337
569.18	0.566
569.38	0.578
569.58	0.535
569.79	0.214
569.99	0.628
570.19	0.630
570.39	0.473
570.60	0.285
570.80	0.681
571.00	0.770
571.21	0.500
571.41	0.459
571.61	0.638
571.82	0.794
572.02	0.662
572.22	0.368
572.42	0.705
572.63	0.583
572.83	0.800
573.03	0.633
573.24	0.775
573.44	0.548
573.64	0.649
573.84	0.391
574.05	0.633
574.25	0.561
574.45	0.528
574.66	0.465
574.86	0.938
575.06	0.920
575.26	0.435
575.47	0.793
575.67	0.784
575.87	0.692
576.07	0.977
576.28	0.776
576.48	0.885
576.68	1.028
576.88	1.220
577.09	1.036
577.29	0.942
577.49	1.205
577.69	0.941
577.90	0.992
578.10	0.695
578.30	1.279
578.50	1.449
578.71	1.169
578.91	1.480
579.11	1.881
579.31	2.469
579.52	2.768
579.72	4.077
579.92	6.140
580.12	9.309
580.33	13.126
580.53	18.317
580.73	26.226
580.93	32.881
581.13	40.204
581.34	47.393
581.54	53.203
581.74	59.489
581.94	66.161
582.15	69.886
582.35	74.110
582.55	77.053
582.75	79.886
582.95	83.578
583.16	85.203
583.36	87.209
583.56	89.272
583.76	90.185
583.96	91.543
584.17	91.881
584.37	91.985
584.57	92.914
584.77	92.487
584.97	93.778
585.18	92.562
585.38	92.399
585.58	91.108
585.78	91.478
585.98	91.212
586.19	91.806
586.39	89.399
586.59	90.010
586.79	90.704
586.99	90.458
587.20	89.916
587.40	91.279
587.60	92.620
587.80	91.418
588.00	90.976
588.20	91.870
588.41	92.677
588.61	92.154
588.81	90.661
589.01	91.474
589.21	91.445
589.41	90.965
589.62	91.838
589.82	91.982
590.02	91.283
590.22	91.967
590.42	90.481
590.62	91.199
590.83	91.196
591.03	90.806
591.23	90.514
591.43	92.104
591.63	91.083
591.83	91.917
592.03	92.291
592.24	91.839
592.44	91.580
592.64	91.121
592.84	91.894
593.04	93.692
593.24	92.215
593.44	93.154
593.65	92.627
593.85	92.680
594.05	92.183
594.25	93.199
594.45	91.873
594.65	91.910
594.85	91.301
595.06	90.741
595.26	90.410
595.46	90.265
595.66	91.274
595.86	90.727
596.06	91.846
596.26	91.037
596.46	92.017
596.66	91.801
596.87	92.458
597.07	91.959
597.27	91.610
597.47	92.505
597.67	91.821
597.87	91.333
598.07	91.464
598.27	91.160
598.47	91.352
598.67	90.727
598.88	90.822
599.08	90.417
599.28	90.127
599.48	87.953
599.68	88.287
599.88	88.175
600.08	88.857
600.28	90.484
600.48	89.089
600.68	89.519
600.88	90.189
601.09	91.029
601.29	91.811
601.49	91.029
601.69	91.167
601.89	91.683
602.09	90.967
602.29	92.258
602.49	91.618
602.69	91.463
602.89	91.680
603.09	91.331
603.29	93.169
603.49	90.960
603.69	90.755
603.90	90.859
604.10	89.799
604.30	90.678
604.50	89.755
604.70	90.394
604.90	90.579
605.10	89.763
605.30	90.328
605.50	89.957
605.70	91.473
605.90	90.607
606.10	90.448
606.30	90.706
606.50	91.459
606.70	91.620
606.90	91.809
607.10	92.332
607.30	90.842
607.50	91.970
607.70	91.862
607.90	91.308
608.10	90.949
608.30	91.909
608.50	89.893
608.70	90.386
608.90	90.204
609.11	90.808
609.31	90.644
609.51	91.649
609.71	91.538
609.91	90.136
610.11	89.587
610.31	90.229
610.51	90.783
610.71	90.040
610.91	90.038
611.11	90.278
611.31	90.259
611.51	90.783
611.71	89.843
611.91	89.672
612.11	91.160
612.31	92.032
612.51	90.378
612.71	90.120
612.91	91.004
613.11	90.158
613.31	90.890
613.51	90.177
613.71	89.582
613.91	90.196
614.11	89.497
614.31	88.607
614.50	89.420
614.70	88.823
614.90	88.791
615.10	90.103
615.30	88.810
615.50	88.503
615.70	88.796
615.90	89.548
616.10	89.273
616.30	89.152
616.50	89.754
616.70	90.739
616.90	91.356
617.10	89.865
617.30	91.966
617.50	91.801
617.70	91.565
617.90	91.730
618.10	91.116
618.30	92.244
618.50	92.339
618.70	92.573
618.90	92.640
619.10	92.551
619.30	91.787
619.49	92.356
619.69	91.584
619.89	90.803
620.09	91.186
620.29	90.120
620.49	90.130
620.69	90.560
620.89	90.757
621.09	90.906
621.29	90.592
621.49	91.160
621.69	91.566
621.89	91.018
622.09	90.790
622.29	91.426
622.48	90.847
622.68	92.240
622.88	92.266
623.08	91.820
623.28	91.306
623.48	91.355
623.68	91.883
623.88	91.246
624.08	91.908
624.28	90.741
624.48	91.247
624.67	90.752
624.87	92.254
625.07	91.402
625.27	92.962
625.47	92.136
625.67	92.204
625.87	91.837
626.07	91.463
626.27	92.110
626.47	91.527
626.66	90.863
626.86	91.855
627.06	91.021
627.26	90.473
627.46	90.964
627.66	92.084
627.86	92.303
628.06	90.868
628.25	92.022
628.45	90.363
628.65	90.199
628.85	90.146
629.05	89.878
629.25	90.417
629.45	89.646
629.65	90.320
629.84	90.353
630.04	90.269
630.24	89.821
630.44	90.272
630.64	91.039
630.84	90.600
631.04	92.238
631.23	92.172
631.43	91.062
631.63	91.698
631.83	91.486
632.03	91.225
632.23	91.498
632.42	90.170
632.62	91.843
632.82	91.460
633.02	92.192
633.22	92.639
633.42	91.099
633.62	90.860
633.81	90.478
634.01	91.667
634.21	90.705
634.41	91.284
634.61	91.579
634.80	92.263
635.00	91.884
635.20	90.266
635.40	91.125
635.60	90.490
635.80	90.069
635.99	90.146
636.19	89.939
636.39	90.660
636.59	90.862
636.79	89.068
636.98	90.585
637.18	91.089
637.38	90.325
637.58	90.303
637.78	88.976
637.97	89.090
638.17	87.648
638.37	83.539
638.57	79.596
638.77	74.502
638.96	68.700
639.16	62.194
639.36	55.577
639.56	49.994
639.76	43.172
639.95	38.038
640.15	33.146
640.35	28.851
640.55	24.507
640.75	21.082
640.94	18.032
641.14	14.932
641.34	12.232
641.54	9.954
641.73	7.906
641.93	6.251
642.13	4.679
642.33	3.189
642.53	2.666
642.72	1.969
642.92	1.705
643.12	1.245
643.32	1.186
643.51	0.942
643.71	0.646
643.91	0.619
644.11	0.637
644.30	0.626
644.50	0.641
644.70	0.488
644.90	0.589
645.09	0.581
645.29	0.489
645.49	0.443
645.69	0.523
645.88	0.289
646.08	0.496
646.28	0.638
646.48	0.409
646.67	0.314
646.87	0.461
647.07	0.334
647.26	0.259
647.46	0.545
647.66	0.296
647.86	0.201
648.05	0.256
648.25	0.351
648.45	0.220
648.65	0.174
648.84	0.239
649.04	0.213
649.24	0.134
649.43	0.683
649.63	0.319
649.83	0.522
650.03	0.276
650.22	0.197
650.42	0.329
650.62	0.442
650.81	0.142
651.01	0.154
651.21	0.193
651.40	0.387
651.60	0.240
651.80	0.032
652.00	0.000
652.19	0.239
652.39	0.181
652.59	0.233
652.78	0.309
652.98	0.205
653.18	0.321
653.37	0.177
653.57	0.224
653.77	0.297
653.96	0.157
654.16	0.260
654.36	0.210
654.55	0.008
654.75	0.206
654.95	0.266
655.14	0.392
655.34	0.300
655.54	0.102
655.73	0.296
655.93	0.070
656.13	-0.068
656.32	0.110
656.52	0.228
656.72	0.212
656.91	0.290
657.11	0.098
657.31	0.162
657.50	0.257
657.70	-0.144
657.90	0.086
658.09	-0.071
658.29	0.102
658.49	0.079
658.68	0.172
658.88	0.138
659.07	0.086
659.27	0.209
659.47	0.094
659.66	0.227
659.86	0.199
660.06	0.164
660.25	0.109
660.45	-0.125
660.64	0.082
660.84	0.269
661.04	0.140
661.23	0.410
661.43	0.226
661.63	0.228
661.82	0.097
662.02	0.008
662.21	0.000
662.41	0.019
662.61	0.249
662.80	0.231
663.00	0.308
663.19	0.067
663.39	0.106
663.59	0.078
663.78	0.047
663.98	0.181
664.17	-0.016
664.37	0.150
664.57	-0.059
664.76	-0.031
664.96	0.093
665.15	0.116
665.35	-0.055
665.55	-0.043
665.74	-0.046
665.94	-0.187
666.13	0.019
666.33	0.164
666.53	0.027
666.72	0.118
666.92	0.020
667.11	0.055
667.31	0.078
667.50	-0.062
667.70	-0.150
667.90	0.305
668.09	-0.031
668.29	-0.109
668.48	0.109
668.68	0.137
668.87	0.250
669.07	0.090
669.26	0.008
669.46	0.074
669.66	0.043
669.85	-0.071
670.05	-0.071
670.24	0.154
670.44	0.161
670.63	0.097
670.83	0.326
671.02	0.031
671.22	0.027
671.42	-0.153
671.61	-0.039
671.81	0.098
672.00	0.149
672.20	-0.090
672.39	-0.027
672.59	0.166
672.78	0.168
672.98	0.043
673.17	0.114
673.37	-0.150
673.56	0.094
673.76	0.093
673.95	0.219
674.15	-0.074
674.34	0.047
674.54	-0.093
674.73	0.132
674.93	0.027
675.13	0.074
675.32	0.141
675.52	-0.023
675.71	-0.098
675.91	0.094
676.10	-0.008
676.30	-0.074
676.49	0.122
676.69	0.075
676.88	0.035
677.08	-0.122
677.27	-0.107
677.47	0.181
677.66	-0.047
677.86	-0.214
678.05	-0.178
678.24	-0.059
678.44	-0.176
678.63	-0.024
678.83	0.008
679.02	0.110
679.22	-0.087
679.41	-0.276
679.61	-0.204
679.80	-0.024
680.00	-0.016
680.19	-0.171
680.39	-0.098
680.58	-0.156
680.78	0.121
680.97	-0.105
681.17	0.087
681.36	0.020
681.56	-0.118
681.75	-0.083
681.94	0.059
682.14	-0.138
682.33	-0.051
682.53	0.078
682.72	-0.004
682.92	-0.028
683.11	0.031
683.31	-0.040
683.50	-0.027
683.69	-0.098
683.89	-0.075
684.08	-0.004
684.28	0.195
684.47	0.043
684.67	-0.155
684.86	0.154
685.06	-0.031
685.25	-0.182
685.44	0.039
685.64	-0.028
685.83	0.031
686.03	-0.131
686.22	0.055
686.42	-0.072
686.61	-0.055
686.80	-0.151
687.00	0.067
687.19	0.036
687.39	-0.087
687.58	-0.012
687.77	-0.016
687.97	0.000
688.16	-0.032
688.36	-0.052
688.55	0.064
688.74	0.087
688.94	-0.072
689.13	-0.181
689.33	-0.024
689.52	-0.203
689.71	-0.064
689.91	-0.127
690.10	0.056
690.30	-0.151
690.49	0.032
690.68	-0.152
690.88	-0.048
691.07	-0.107
691.27	0.151
691.46	-0.138
691.65	-0.191
691.85	0.142
692.04	-0.012
692.23	-0.205
692.43	-0.137
692.62	0.000
692.82	0.237
693.01	0.163
693.20	0.116
693.40	0.052
693.59	-0.072
693.78	-0.289
693.98	-0.104
694.17	0.112
694.36	-0.135
694.56	0.048
694.75	0.104
694.94	-0.088
695.14	0.008
695.33	-0.028
695.53	0.092
695.72	0.036
695.91	-0.052
696.11	-0.243
696.30	-0.097
696.49	-0.105
696.69	-0.114
696.88	0.061
697.07	-0.142
697.27	-0.056
697.46	0.061
697.65	-0.077
697.85	-0.109
698.04	-0.145
698.23	0.218
698.43	0.138
698.62	-0.084
698.81	-0.093
699.01	-0.049
699.20	-0.113
699.39	0.040
699.58	0.135
699.78	0.085
699.97	-0.094
700.16	-0.086
700.36	-0.037
700.55	-0.069
700.74	-0.057
700.94	-0.119
701.13	0.203
701.32	-0.167
701.52	-0.276
701.71	0.135
701.90	0.078
702.09	-0.147
702.29	-0.217
702.48	0.090
702.67	-0.053
702.87	0.094
703.06	0.070
703.25	0.152
703.44	-0.131
703.64	-0.075
703.83	-0.087
704.02	0.082
704.22	-0.057
704.41	-0.058
704.60	-0.041
704.79	-0.131
704.99	-0.025
705.18	0.024
705.37	-0.164
705.56	-0.153
705.76	0.037
705.95	0.008
706.14	-0.041
706.33	-0.141
706.53	-0.083
706.72	-0.139
706.91	-0.173
707.11	0.000
707.30	-0.228
707.49	0.226
707.68	-0.079
707.88	-0.025
708.07	-0.042
708.26	-0.033
708.45	-0.084
708.64	-0.012
708.84	0.079
709.03	0.170
709.22	-0.117
709.41	-0.127
709.61	0.181
709.80	0.122
709.99	0.021
710.18	-0.038
710.38	-0.025
710.57	0.017
710.76	-0.072
710.95	0.106
711.14	0.092
711.34	-0.063
711.53	-0.072
711.72	-0.106
711.91	0.013
712.11	-0.042
712.30	-0.288
712.49	-0.030
712.68	-0.084
712.87	-0.140
713.07	0.119
713.26	-0.008
713.45	0.178
713.64	0.004
713.83	-0.191
714.03	0.238
714.22	0.008
714.41	0.152
714.60	-0.004
714.79	-0.077
714.99	0.047
715.18	-0.051
715.37	-0.175
715.56	0.115
715.75	-0.072
715.94	-0.069
716.14	-0.231
716.33	-0.168
716.52	-0.211
716.71	-0.073
716.90	0.128
717.10	0.086
717.29	0.095
717.48	-0.254
717.67	-0.164
717.86	0.030
718.05	-0.215
718.24	-0.078
718.44	0.013
718.63	0.065
718.82	0.026
719.01	-0.165
719.20	-0.013
719.39	-0.165
719.59	0.056
719.78	-0.122
719.97	0.053
720.16	-0.123
720.35	-0.272
720.54	-0.082
720.73	0.043
720.93	0.130
721.12	-0.155
721.31	-0.253
721.50	0.245
721.69	-0.022
721.88	-0.048
722.07	-0.017
722.27	-0.026
722.46	-0.088
722.65	-0.071
722.84	-0.269
723.03	-0.164
723.22	-0.141
723.41	-0.018
723.60	0.161
723.79	-0.035
723.99	0.000
724.18	0.101
724.37	0.049
724.56	0.018
724.75	-0.128
724.94	-0.022
725.13	-0.110
725.32	0.189
725.51	-0.022
725.71	-0.027
725.90	-0.142
726.09	-0.063
726.28	-0.187
726.47	0.121
726.66	0.155
726.85	-0.119
727.04	-0.209
727.23	-0.165
727.42	-0.157
727.61	-0.098
727.81	-0.130
728.00	-0.153
728.19	-0.085
728.38	-0.134
728.57	-0.229
728.76	-0.139
728.95	-0.104
729.14	-0.095
729.33	0.018
729.52	-0.243
729.71	0.054
729.90	-0.327
730.09	-0.004
730.28	-0.099
730.48	0.081
730.67	-0.027
730.86	-0.027
731.05	0.040
731.24	0.005
731.43	-0.254
731.62	-0.050
731.81	-0.023
732.00	-0.018
732.19	-0.159
732.38	-0.146
732.57	-0.077
732.76	-0.082
732.95	0.312
733.14	0.032
733.33	0.221
733.52	-0.032
733.71	0.200
733.90	0.050
734.09	-0.320
734.28	-0.082
734.47	-0.234
734.66	-0.041
734.85	-0.132
735.04	-0.202
735.23	-0.183
735.42	-0.106
735.61	-0.009
735.81	0.113
736.00	-0.120
736.19	-0.124
736.38	0.082
736.57	-0.032
736.76	-0.027
736.95	-0.246
737.14	0.078
737.33	-0.055
737.52	0.060
737.71	0.042
737.90	-0.074
738.09	0.098
738.28	0.023
738.47	-0.130
738.66	-0.023
738.85	-0.293
739.04	0.000
739.22	0.198
739.41	-0.028
739.60	-0.093
739.79	0.125
739.98	-0.144
740.17	0.107
740.36	-0.071
740.55	-0.028
740.74	-0.151
740.93	-0.319
741.12	0.005
741.31	-0.151
741.50	-0.141
741.69	-0.127
741.88	-0.124
742.07	-0.334
742.26	0.070
742.45	-0.057
742.64	0.090
742.83	-0.109
743.02	0.052
743.21	0.033
743.40	0.105
743.59	-0.152
743.78	-0.095
743.97	0.095
744.16	-0.166
744.34	0.109
744.53	0.038
744.72	0.295
744.91	-0.252
745.10	-0.127
745.29	0.132
745.48	-0.253
745.67	-0.019
745.86	-0.014
746.05	-0.267
746.24	0.005
746.43	-0.159
746.62	0.104
746.81	-0.067
747.00	0.110
747.18	-0.217
747.37	0.221
747.56	-0.410
747.75	-0.072
747.94	0.039
748.13	0.126
748.32	0.093
748.51	-0.092
748.70	0.199
748.89	-0.078
749.08	-0.177
749.26	-0.174
749.45	0.217
749.64	0.044
749.83	0.048
750.02	0.242
750.21	0.053
750.40	0.164
750.59	0.121
750.78	-0.286
750.96	-0.339
751.15	-0.121
751.34	0.125
751.53	-0.058
751.72	0.228
751.91	-0.184
752.10	-0.334
752.29	0.234
752.47	-0.152
752.66	-0.171
752.85	-0.063
753.04	-0.039
753.23	0.034
753.42	-0.404
753.61	-0.074
753.80	0.000
753.98	0.143
754.17	0.147
754.36	0.221
754.55	-0.279
754.74	-0.108
754.93	-0.080
755.12	-0.123
755.30	-0.010
755.49	0.148
755.68	0.044
755.87	-0.020
756.06	-0.074
756.25	-0.188
756.43	0.249
756.62	-0.280
756.81	0.452
757.00	0.074
757.19	-0.239
757.38	0.015
757.56	0.095
757.75	-0.010
757.94	-0.301
758.13	0.075
758.32	-0.171
758.51	-0.095
758.69	-0.180
758.88	-0.130
759.07	0.138
759.26	-0.145
759.45	-0.090
759.63	0.120
759.82	0.206
760.01	-0.081
760.20	0.040
760.39	-0.226
760.57	-0.198
760.76	0.085
760.95	-0.071
761.14	-0.290
761.33	-0.005
761.51	0.127
761.70	-0.235
761.89	0.081
762.08	0.101
762.27	0.071
762.45	-0.337
762.64	-0.142
762.83	0.274
763.02	-0.154
763.21	-0.277
763.39	0.026
763.58	-0.137
763.77	-0.046
763.96	-0.166
764.14	0.051
764.33	-0.526
764.52	0.046
764.71	-0.041
764.89	0.195
765.08	0.046
765.27	-0.057
765.46	0.036
765.65	-0.041
765.83	0.161
766.02	-0.240
766.21	0.072
766.40	-0.245
766.58	0.157
766.77	-0.263
766.96	-0.005
767.15	-0.272
767.33	-0.161
767.52	0.121
767.71	-0.026
767.90	-0.110
768.08	0.052
768.27	-0.125
768.46	-0.126
768.64	0.000
768.83	-0.084
769.02	0.058
769.21	0.089
769.39	0.164
769.58	0.243
769.77	0.230
769.96	-0.138
770.14	-0.011
770.33	0.101
770.52	0.202
770.70	-0.016
770.89	0.058
771.08	0.048
771.27	-0.021
771.45	-0.144
771.64	-0.064
771.83	0.195
772.01	-0.248
772.20	0.091
772.39	0.249
772.57	-0.280
772.76	-0.166
772.95	-0.157
773.14	-0.118
773.32	0.075
773.51	0.005
773.70	-0.140
773.88	-0.022
774.07	-0.120
774.26	0.049
774.44	0.027
774.63	0.038
774.82	-0.364
775.00	0.071
775.19	-0.324
775.38	0.148
775.56	0.093
775.75	0.038
775.94	-0.143
776.12	-0.154
776.31	0.164
776.50	-0.100
776.68	0.384
776.87	0.149
777.06	0.181
777.24	0.033
777.43	0.089
777.62	0.187
777.80	-0.066
777.99	0.195
778.18	0.139
778.36	-0.084
778.55	0.177
778.74	0.237
778.92	-0.135
779.11	0.033
779.29	0.135
779.48	0.140
779.67	-0.225
779.85	0.067
780.04	0.364
780.23	-0.057
780.41	0.186
780.60	-0.051
780.79	0.130
780.97	0.177
781.16	-0.023
781.34	-0.045
781.53	0.159
781.72	-0.124
781.90	0.229
782.09	-0.212
782.28	-0.168
782.46	0.000
782.65	0.000
782.83	-0.098
783.02	0.087
783.21	-0.292
783.39	0.129
783.58	0.341
783.76	-0.106
783.95	0.223
784.14	-0.258
784.32	-0.053
784.51	0.234
784.69	0.059
784.88	0.235
785.06	0.194
785.25	-0.206
785.44	0.392
785.62	-0.147
785.81	0.053
785.99	0.365
786.18	-0.319
786.37	0.242
786.55	0.036
786.74	0.218
786.92	0.318
787.11	-0.162
787.29	-0.059
787.48	-0.042
787.67	-0.012
787.85	-0.168
788.04	-0.181
788.22	-0.030
788.41	0.125
788.59	0.065
788.78	-0.329
788.96	0.012
789.15	0.174
789.34	0.000
789.52	-0.187
789.71	0.195
789.89	0.287
790.08	-0.145
790.26	-0.135
790.45	-0.139
790.63	0.043
790.82	-0.225
791.00	0.520
791.19	0.184
791.38	0.000
791.56	0.006
791.75	-0.270
791.93	0.012
792.12	-0.130
792.30	0.099
792.49	-0.068
792.67	0.315
792.86	-0.098
793.04	0.307
793.23	0.062
793.41	0.124
793.60	0.168
793.78	0.068
793.97	-0.131
794.15	0.240
794.34	-0.137
794.52	-0.238
794.71	0.000
794.89	0.075
795.08	0.321
795.26	-0.283
795.45	-0.025
795.63	-0.136
795.82	-0.282
796.00	0.000
796.19	-0.251
796.37	0.441
796.56	-0.050
796.74	0.155
796.93	0.280
797.11	0.329
797.30	-0.235
797.48	0.149
797.67	0.000
797.85	0.337
798.04	0.238
798.22	0.187
798.41	-0.044
798.59	0.207
798.77	0.392
798.96	-0.282
799.14	0.031
799.33	0.150
799.51	0.092
799.70	-0.025
799.88	-0.044
800.07	0.130
800.25	-0.257
800.44	-0.174
800.62	-0.208
800.80	0.094
800.99	0.151
801.17	0.235
801.36	0.025
801.54	-0.490
801.73	-0.552
801.91	-0.158
802.10	0.373
802.28	-0.293
802.46	0.114
802.65	0.175
802.83	0.064
803.02	0.146
803.20	-0.172
803.39	-0.019
803.57	0.173
803.75	0.000
803.94	0.413
804.12	0.280
804.31	0.141
804.49	0.141
804.67	-0.104
804.86	0.071
805.04	0.410
805.23	0.032
805.41	0.148
805.59	0.116
805.78	-0.316
805.96	-0.026
806.15	0.477
806.33	-0.039
806.51	0.149
806.70	-0.019
806.88	0.342
807.07	0.019
807.25	0.046
807.43	0.059
807.62	0.198
807.80	0.080
807.99	0.131
808.17	-0.040
808.35	0.165
808.54	0.242
808.72	-0.159
808.90	-0.072
809.09	-0.059
809.27	0.164
809.46	0.366
809.64	-0.073
809.82	0.484
810.01	-0.181
810.19	0.013
810.37	0.290
810.56	0.662
810.74	0.206
810.92	0.095
811.11	0.415
811.29	0.147
811.48	0.041
811.66	-0.271
811.84	0.480
812.03	-0.007
812.21	-0.027
812.39	0.103
812.58	-0.138
812.76	0.466
812.94	-0.373
813.13	-0.103
813.31	0.199
813.49	0.359
813.68	-0.111
813.86	0.166
814.04	0.513
814.23	0.543
814.41	0.238
814.59	0.232
814.78	0.057
814.96	0.268
815.14	0.014
815.33	0.056
815.51	0.276
815.69	-0.162
815.87	-0.212
816.06	0.106
816.24	-0.255
816.42	-0.115
816.61	-0.137
816.79	0.257
816.97	0.236
817.16	0.385
817.34	-0.316
817.52	0.211
817.70	0.216
817.89	-0.022
818.07	0.275
818.25	0.352
818.44	0.626
818.62	0.015
818.80	0.000
818.98	-0.052
819.17	0.317
819.35	0.082
819.53	-0.081
819.72	0.325
819.90	0.299
820.08	0.290
820.26	0.269
820.45	0.275
820.63	0.472
820.81	0.120
820.99	0.433
821.18	0.327
821.36	0.316
821.54	0.313
821.73	0.411
821.91	-0.053
822.09	-0.182
822.27	0.555
822.46	0.259
822.64	0.283
822.82	0.544
823.00	-0.039
823.19	0.178
823.37	0.320
823.55	0.016
823.73	0.077
823.91	-0.031
824.10	-0.201
824.28	0.062
824.46	0.278
824.64	-0.031
824.83	-0.240
825.01	0.365
825.19	-0.155
825.37	0.110
825.56	0.424
825.74	0.513
825.92	0.048
826.10	-0.056
826.28	0.266
826.47	0.231
826.65	0.312
826.83	0.145
827.01	0.295
827.19	-0.088
827.38	0.532
827.56	0.283
827.74	0.224
827.92	0.586
828.10	0.664
828.29	0.387
828.47	0.041
828.65	0.016
828.83	0.241
829.01	0.147
829.20	-0.536
829.38	0.033
829.56	0.513
829.74	0.140
829.92	0.272
830.10	0.264
830.29	0.445
830.47	0.825
830.65	-0.242
830.83	0.182
831.01	0.395
831.20	0.497
831.38	0.199
831.56	0.489
831.74	0.101
831.92	0.500
832.10	-0.218
832.29	0.033
832.47	0.093
832.65	-0.262
832.83	0.017
833.01	-0.239
833.19	0.180
833.37	0.187
833.56	0.297
833.74	0.382
833.92	0.322
834.10	0.290
834.28	-0.120
834.46	0.910
834.64	0.400
834.83	-0.131
835.01	0.146
835.19	0.592
835.37	0.276
835.55	-0.445
835.73	0.137
835.91	0.043
836.09	-0.051
836.28	0.311
836.46	-0.190
836.64	0.352
836.82	0.475
837.00	0.536
837.18	0.026
837.36	0.279
837.54	0.150
837.72	0.227
837.91	0.114
838.09	0.439
838.27	0.035
838.45	0.249
838.63	-0.061
838.81	0.323
838.99	-0.079
839.17	-0.169
839.35	0.608
839.53	-0.455
839.72	0.072
839.90	0.107
840.08	0.715
840.26	0.638
840.44	0.619
840.62	-0.036
840.80	0.475
840.98	0.463
841.16	0.109
841.34	0.296
841.52	-0.110
841.70	0.072
841.89	0.091
842.07	0.624
842.25	0.400
842.43	0.328
842.61	0.211
842.79	0.893
842.97	-0.046
843.15	0.368
843.33	0.615
843.51	0.438
843.69	0.630
843.87	-0.120
844.05	0.367
844.23	0.009
844.41	0.666
844.59	-0.037
844.77	0.241
844.95	0.550
845.13	0.000
845.31	0.038
845.50	0.407
845.68	0.274
845.86	-0.123
846.04	0.631
846.22	0.306
846.40	-0.460
846.58	-0.086
846.76	-0.369
846.94	0.264
847.12	0.039
847.30	0.180
847.48	0.661
847.66	0.682
847.84	0.632
848.02	0.595
848.20	0.298
848.38	0.498
848.56	0.173
848.74	0.057
848.92	0.298
849.10	0.390
849.28	0.671
849.46	1.041
849.64	0.859
849.82	1.121
850.00	1.967
850.18	2.298
850.36	2.936
850.54	4.097
850.72	4.408
850.90	5.250
851.08	4.587
851.26	3.972
851.44	3.893
851.62	4.049
851.80	4.421
851.98	3.570
852.16	3.684
852.34	3.673
852.52	3.481
852.70	2.981
852.87	2.895
853.05	2.760
853.23	2.480
853.41	2.327
853.59	2.272
853.77	2.057
853.95	2.515
854.13	1.381
854.31	1.423
854.49	1.294
854.67	1.051
854.85	0.701
855.03	0.989
855.21	0.748
855.39	0.874
855.57	0.660
855.75	0.141
855.93	0.143
856.11	0.592
856.28	0.492
856.46	-0.277
856.64	0.457
856.82	0.776
857.00	0.879
857.18	0.276
857.36	0.327
857.54	-0.073
857.72	0.155
857.90	0.524
858.08	0.406
858.26	0.588
858.44	0.647
858.61	0.104
858.79	0.273
858.97	0.459
859.15	-0.084
859.33	0.787
859.51	-0.093
859.69	0.497
859.87	-0.115
860.05	0.251
860.23	-0.475
860.40	0.167
860.58	-0.094
860.76	0.042
860.94	0.641
861.12	0.240
861.30	-0.159
861.48	0.261
861.66	1.073
861.84	0.171
862.01	0.647
862.19	-0.021
862.37	0.348
862.55	0.204
862.73	0.589
862.91	0.181
863.09	0.505
863.27	0.182
863.44	0.557
863.62	0.477
863.80	0.570
863.98	-0.044
864.16	0.530
864.34	0.217
864.52	0.344
864.69	0.910
864.87	0.860
865.05	0.473
865.23	0.642
865.41	-0.432
865.59	0.033
865.76	0.347
865.94	0.844
866.12	0.065
866.30	0.546
866.48	-0.011
866.66	0.382
866.83	0.011
867.01	0.300
867.19	0.576
867.37	0.336
867.55	-0.529
867.73	-0.103
867.90	0.293
868.08	0.411
868.26	0.892
868.44	0.487
868.62	0.569
868.79	0.214
868.97	0.803
869.15	0.248
869.33	0.387
869.51	0.610
869.69	0.922
869.86	0.094
870.04	0.034
870.22	0.422
870.40	0.403
870.57	0.705
870.75	0.604
870.93	0.658
871.11	1.001
871.29	0.446
871.46	-0.330
871.64	-0.437
871.82	0.875
872.00	0.940
872.18	0.214
872.35	0.646
872.53	0.571
872.71	0.488
872.89	0.840
873.06	0.048
873.24	0.916
873.42	0.299
873.60	0.427
873.77	-0.143
873.95	0.155
874.13	0.456
874.31	0.349
874.49	0.759
874.66	0.265
874.84	0.048
875.02	0.475
875.20	0.276
875.37	-0.108
875.55	0.340
875.73	0.024
875.91	0.355
876.08	0.253
876.26	0.683
876.44	0.582
876.61	0.706
876.79	0.800
876.97	0.451
877.15	0.918
877.32	0.147
877.50	0.845
877.68	0.627
877.86	0.681
878.03	0.674
878.21	1.122
878.39	0.318
878.56	0.686
878.74	0.647
878.92	-0.443
879.10	0.256
879.27	0.464
879.45	1.125
879.63	0.412
879.80	0.147
879.98	-0.122
880.16	0.145
880.34	0.868
880.51	0.485
880.69	0.874
880.87	-0.330
881.04	1.140
881.22	0.578
881.40	0.000
881.57	0.456
881.75	0.098
881.93	0.218
882.10	-0.074
882.28	-0.084
882.46	0.593
882.63	0.338
882.81	0.460
882.99	-0.049
883.16	-0.123
883.34	1.021
883.52	0.702
883.69	0.870
883.87	0.074
884.05	0.449
884.22	0.517
884.40	-0.123
884.58	-0.025
884.75	-0.281
884.93	1.187
885.11	-0.024
885.28	0.265
885.46	0.233
885.64	-0.122
885.81	0.351
885.99	0.783
886.17	0.885
886.34	0.049
886.52	0.939
886.70	0.122
886.87	-0.669
887.05	0.294
887.22	0.485
887.40	0.848
887.58	0.718
887.75	-0.051
887.93	0.435
888.11	0.753
888.28	0.050
888.46	0.221
888.63	1.056
888.81	-0.693
888.99	0.895
889.16	0.409
889.34	0.087
889.51	1.154
889.69	0.126
889.87	0.543
890.04	0.198
890.22	0.544
890.39	0.650
890.57	0.753
890.75	0.462
890.92	0.510
891.10	0.726
891.27	0.525
891.45	0.944
891.63	-0.201
891.80	1.174
891.98	0.735
892.15	0.665
892.33	0.348
892.51	0.279
892.68	0.892
892.86	0.463
893.03	0.566
893.21	0.696
893.38	-0.087
893.56	0.668
893.74	0.841
893.91	0.757
894.09	0.430
894.26	0.665
894.44	-0.202
894.61	0.804
894.79	0.025
894.96	1.249
895.14	0.436
895.32	0.695
895.49	0.203
895.67	0.038
895.84	-0.104
896.02	0.787
896.19	0.750
896.37	0.322
896.54	1.258
896.72	0.299
896.89	0.026
897.07	0.459
897.25	0.979
897.42	0.362
897.60	-0.154
897.77	0.554
897.95	0.026
898.12	0.115
898.30	0.348
898.47	-0.130
898.65	0.677
898.82	-0.040
899.00	-0.133
899.17	0.577
899.35	0.965
899.52	0.067
899.70	-0.185
899.87	0.550
900.05	0.066
900.22	-0.107
900.40	0.910
900.57	0.832
900.75	0.841
900.92	0.489
901.10	-0.558
901.27	0.215
901.45	0.854
901.62	0.420
901.80	0.458
901.97	0.496
902.15	0.965
902.32	0.601
902.50	1.203
902.67	0.995
902.85	0.469
903.02	1.082
903.20	0.264
903.37	0.695
903.54	0.850
903.72	0.652
903.89	0.550
904.07	0.452
904.24	0.296
904.42	0.254
904.59	0.550
904.77	0.621
904.94	0.657
905.12	0.699
905.29	0.884
905.47	-0.142
905.64	-0.286
905.81	0.158
905.99	0.540
906.16	0.618
906.34	0.790
906.51	0.423
906.69	0.685
906.86	0.682
907.03	0.547
907.21	-0.611
907.38	0.159
907.56	1.304
907.73	1.081
907.91	0.791
908.08	0.614
908.25	-0.117
908.43	0.144
908.60	0.650
908.78	0.597
908.95	0.439
909.13	1.320
909.30	0.912
909.47	0.697
909.65	0.604
909.82	0.925
910.00	1.439
910.17	0.656
910.34	-0.263
910.52	0.570
910.69	0.494
910.87	0.976
911.04	0.726
911.21	1.032
911.39	0.402
911.56	0.965
911.73	1.274
911.91	1.721
912.08	1.073
912.26	1.054
912.43	1.048
912.60	0.725
912.78	0.512
912.95	1.021
913.13	0.871
913.30	2.065
913.47	1.203
913.65	1.542
913.82	1.192
913.99	0.699
914.17	1.555
914.34	1.969
914.51	1.006
914.69	1.919
914.86	2.337
915.03	2.043
915.21	2.152
915.38	1.908
915.56	2.911
915.73	2.010
915.90	1.771
916.08	3.255
916.25	3.118
916.42	2.482
916.60	3.800
916.77	3.188
916.94	3.909
917.12	3.409
917.29	4.015
917.46	5.662
917.64	5.933
917.81	6.253
917.98	7.382
918.16	7.638
918.33	10.089
918.50	10.557
918.67	11.383
918.85	15.214
919.02	17.153
919.19	20.072
919.37	21.867
919.54	25.933
919.71	28.525
919.89	31.183
920.06	34.764
920.23	39.743
920.41	38.760
920.58	42.179
920.75	42.634
920.92	42.409
921.10	41.805
921.27	42.470
921.44	40.923
921.62	39.601
921.79	40.490
921.96	38.484
922.13	36.215
922.31	33.292
922.48	33.199
922.65	30.523
922.82	29.551
923.00	28.112
923.17	25.603
923.34	24.959
923.52	24.006
923.69	23.662
923.86	22.112
924.03	22.019
924.21	20.470
924.38	19.825
924.55	18.612
924.72	18.048
924.90	19.472
925.07	17.633
925.24	16.312
925.41	14.921
925.59	15.417
925.76	15.171
925.93	13.324
926.10	14.957
926.28	13.743
926.45	13.666
926.62	12.421
926.79	13.620
926.96	13.363
927.14	13.762
927.31	14.074
927.48	12.054
927.65	12.773
927.83	12.636
928.00	12.785
928.17	12.337
928.34	13.589
928.51	13.092
928.69	12.092
928.86	14.490
929.03	14.157
929.20	13.711
929.37	12.720
929.55	12.384
929.72	13.731
929.89	12.622
930.06	14.487
930.23	13.003
930.41	15.674
930.58	14.597
930.75	14.780
930.92	15.107
931.09	14.772
931.27	14.433
931.44	14.345
931.61	13.339
931.78	14.950
931.95	15.753
932.12	15.559
932.30	13.463
932.47	14.858
932.64	16.134
932.81	14.931
932.98	15.159
933.16	16.241
933.33	15.599
933.50	16.184
933.67	16.593
933.84	16.791
934.01	15.668
934.18	17.827
934.36	17.930
934.53	18.164
934.70	16.881
934.87	17.856
935.04	15.602
935.21	15.533
935.38	17.186
935.56	18.253
935.73	18.031
935.90	19.281
936.07	18.211
936.24	19.630
936.41	19.791
936.58	20.984
936.76	19.446
936.93	19.114
937.10	21.087
937.27	22.225
937.44	22.758
937.61	22.876
937.78	23.275
937.95	24.964
938.13	25.120
938.30	25.197
938.47	26.623
938.64	26.534
938.81	26.919
938.98	28.980
939.15	32.282
939.32	32.649
939.49	34.130
939.66	36.577
939.84	37.248
940.01	38.036
940.18	38.860
940.35	41.450
940.52	43.249
940.69	47.576
940.86	46.915
941.03	50.767
941.20	51.750
941.37	54.725
941.54	54.513
941.71	57.710
941.89	58.411
942.06	64.161
942.23	63.924
942.40	63.525
942.57	66.917
942.74	65.454
942.91	68.595
943.08	68.758
943.25	68.646
943.42	69.077
943.59	70.832
943.76	68.056
943.93	71.605
944.10	69.192
944.27	71.199
944.44	66.622
944.61	69.498
944.79	67.419
944.96	68.043
945.13	69.924
945.30	63.532
945.47	63.575
945.64	66.516
945.81	63.704
945.98	62.287
946.15	62.428
946.32	63.023
946.49	61.620
946.66	60.534
946.83	59.498
947.00	60.631
947.17	58.331
947.34	59.762
947.51	57.083
947.68	58.537
947.85	57.400
948.02	55.217
948.19	53.929
948.36	56.013
948.53	52.954
948.70	55.379
948.87	59.169
949.04	57.733
949.21	57.828
949.38	60.138
949.55	57.947
949.72	60.332
949.89	59.994
950.06	62.845
950.23	64.318
950.40	61.774
950.57	65.863
950.74	64.240
950.91	65.499
951.08	66.727
951.25	67.442
951.42	69.199
951.59	70.668
951.76	69.325
951.93	70.096
952.10	70.953
952.27	73.137
952.44	74.238
952.61	70.985
952.77	71.773
952.94	73.622
953.11	75.833
953.28	73.187
953.45	73.010
953.62	72.787
953.79	70.205
953.96	72.141
954.13	71.797
954.30	68.841
954.47	68.028
954.64	65.449
954.81	65.824
954.98	62.132
955.15	59.441
955.32	60.309
955.49	52.646
955.65	52.795
955.82	54.453
955.99	50.714
956.16	48.484
956.33	45.640
956.50	45.839
956.67	43.901
956.84	43.845
957.01	40.787
957.18	37.657
957.35	38.508
957.52	37.110
957.68	36.001
957.85	37.460
958.02	35.645
958.19	35.509
958.36	33.599
958.53	29.826
958.70	30.654
958.87	27.821
959.04	29.182
959.21	26.306
959.37	23.881
959.54	26.462
959.71	22.610
959.88	23.909
960.05	24.761
960.22	23.769
960.39	21.334
960.56	21.574
960.72	21.265
960.89	21.906
961.06	20.732
961.23	18.717
961.40	20.911
961.57	17.690
961.74	16.991
961.90	20.209
962.07	19.438
962.24	18.941
962.41	19.782
962.58	20.168
962.75	16.166
962.92	18.360
963.08	19.916
963.25	18.575
963.42	20.383
963.59	23.046
963.76	20.740
963.93	22.581
964.10	21.205
964.26	22.332
964.43	22.309
964.60	24.288
964.77	24.452
964.94	22.645
965.10	23.943
965.27	28.876
965.44	27.358
965.61	29.833
965.78	31.472
965.95	33.963
966.11	31.792
966.28	36.064
966.45	37.775
966.62	40.362
966.79	43.343
966.95	45.478
967.12	46.395
967.29	51.691
967.46	51.803
967.63	53.398
967.79	52.861
967.96	54.863
968.13	55.387
968.30	62.506
968.47	57.771
968.63	56.479
968.80	55.648
968.97	56.341
969.14	55.445
969.31	50.698
969.47	50.136
969.64	52.233
969.81	47.122
969.98	48.942
970.14	44.408
970.31	40.542
970.48	42.983
970.65	40.948
970.81	36.925
970.98	35.697
971.15	35.484
971.32	35.725
971.48	33.501
971.65	31.500
971.82	29.981
971.99	27.981
972.15	27.121
972.32	23.933
972.49	24.928
972.66	23.001
972.82	24.303
972.99	23.092
973.16	23.691
973.33	20.723
973.49	19.725
973.66	16.600
973.83	14.913
974.00	17.892
974.16	13.065
974.33	12.640
974.50	12.834
974.67	10.666
974.83	11.146
975.00	11.731
975.17	9.111
975.33	11.088
975.50	10.085
975.67	9.339
975.84	8.373
976.00	8.808
976.17	10.006
976.34	8.407
976.50	5.735
976.67	7.070
976.84	6.150
977.00	8.342
977.17	5.863
977.34	5.854
977.50	5.540
977.67	6.254
977.84	6.877
978.01	7.887
978.17	10.169
978.34	7.924
978.51	6.059
978.67	6.071
978.84	7.091
979.01	4.832
979.17	6.011
979.34	5.845
979.51	7.483
979.67	6.044
979.84	9.976
980.01	7.487
980.17	4.779
980.34	5.388
980.51	6.663
980.67	4.696
980.84	6.974
981.01	3.438
981.17	8.995
981.34	11.522
981.50	8.038
981.67	5.638
981.84	5.562
982.00	7.833
982.17	3.224
982.34	6.564
982.50	4.704
982.67	9.015
982.84	14.286
983.00	6.823
983.17	9.049
983.33	8.323
983.50	9.644
983.67	8.941
983.83	7.662
984.00	10.309
984.17	11.861
984.33	15.619
984.50	19.283
984.66	17.122
984.83	24.522
985.00	18.485
985.16	21.278
985.33	26.139
985.49	27.803
985.66	30.685
985.83	30.998
985.99	39.891
986.16	40.170
986.32	40.531
986.49	49.288
986.66	43.633
986.82	47.218
986.99	47.046
987.15	44.741
987.32	41.884
987.49	46.793
987.65	38.246
987.82	44.055
987.98	40.524
988.15	40.621
988.31	40.588
988.48	37.453
988.65	36.415
988.81	31.968
988.98	31.161
989.14	27.287
989.31	29.867
989.47	23.343
989.64	25.513
989.80	25.907
989.97	26.642
990.14	23.213
990.30	16.555
990.47	20.690
990.63	19.365
990.80	16.796
990.96	19.706
991.13	16.625
991.29	14.211
991.46	14.713
991.62	14.438
991.79	3.191
991.95	13.006
992.12	13.029
992.29	11.587
992.45	14.099
992.62	11.094
992.78	10.223
992.95	3.787
993.11	4.307
993.28	4.417
993.44	0.953
993.61	4.359
993.77	8.581
993.94	9.016
994.10	9.099
994.27	3.575
994.43	5.052
994.60	1.295
994.76	2.722
994.93	-0.722
995.09	9.321
995.26	5.326
995.42	6.272
995.59	7.832
995.75	7.273
995.92	12.478
996.08	10.338
996.25	5.478
996.41	1.835
996.58	10.445
996.74	2.340
996.91	3.704
997.07	7.763
997.23	6.345
997.40	1.438
997.56	3.923
997.73	3.362
997.89	6.580
998.06	-2.449
998.22	4.793
998.39	4.388
998.55	-1.174
998.72	6.807
998.88	4.053
999.05	5.350
999.21	4.335
999.37	9.761
999.54	1.798
999.70	2.313
999.87	6.622
1000.03	4.941
1000.20	1.797
1000.36	4.571
1000.52	3.846
1000.69	5.174
1000.85	6.039
1001.02	0.337
1001.18	-0.441
1001.35	1.214
1001.51	5.855
1001.67	6.395
1001.84	0.235
1002.00	3.868
1002.17	-0.452
1002.33	1.689
1002.50	-1.051
1002.66	2.320
1002.82	5.690
1002.99	-1.708
1003.15	9.936
1003.32	4.779
1003.48	4.192
1003.64	1.661
1003.81	4.199
1003.97	2.934
1004.14	0.000
1004.30	2.203
1004.46	4.503
1004.63	7.264
1004.79	5.011
1004.95	4.359
1005.12	1.509
1005.28	10.651
1005.45	7.607
1005.61	-2.644
1005.77	0.000
1005.94	0.402
1006.10	7.809
1006.26	2.778
1006.43	3.861
1006.59	4.376
1006.76	3.083
1006.92	8.706
1007.08	-2.564
1007.25	-0.297
1007.41	10.459
1007.57	2.687
1007.74	9.819
1007.90	7.602
1008.06	0.000
1008.23	8.616
1008.39	9.682
1008.55	10.363
1008.72	4.422
1008.88	9.159
1009.04	3.459
1009.21	6.667
1009.37	0.424
1009.53	1.863
1009.70	7.396
1009.86	5.360
1010.02	2.595
1010.19	-2.219
1010.35	6.222
1010.51	13.165
1010.68	12.329
1010.84	13.650
1011.00	6.512
1011.17	1.057
1011.33	8.359
1011.49	6.349
1011.66	17.155
1011.82	7.175
1011.98	3.492
1012.14	4.460
1012.31	14.438
1012.47	8.320
1012.63	5.854
1012.80	-3.215
1012.96	8.361
1013.12	8.020
1013.29	6.162
1013.45	3.383
1013.61	2.653
1013.77	5.235
1013.94	8.147
1014.10	6.130
1014.26	-0.370
1014.43	2.836
1014.59	0.978
1014.75	3.733
1014.91	9.619
1015.08	8.969
1015.24	9.390
1015.40	-1.587
1015.56	7.649
1015.73	11.464
1015.89	7.353
1016.05	4.779
1016.21	7.218
1016.38	7.482
1016.54	8.302
1016.70	6.085
1016.86	24.000
1017.03	2.838
1017.19	6.655
1017.35	-1.987
1017.51	-2.552
1017.68	0.823
1017.84	-4.065
1018.00	5.202
1018.16	17.235
1018.33	11.349
1018.49	10.669
1018.65	11.236
1018.81	-0.744
1018.97	9.600
1019.14	4.008
1019.30	-1.671
1019.46	9.491
1019.62	13.436
1019.79	19.355
1019.95	-4.944
1020.11	8.276
1020.27	17.021
1020.43	12.848
1020.60	11.321
1020.76	-1.545
1020.92	11.736
1021.08	5.618
1021.24	-0.463
1021.41	-5.556
1021.57	9.653
1021.73	1.471
1021.89	7.830
1022.05	9.137
1022.21	10.026
1022.38	-4.608
1022.54	6.388
1022.70	11.200
1022.86	-0.696
1023.02	2.941
1023.19	17.460
1023.35	7.672
1023.51	2.619
1023.67	4.974
1023.83	22.006
1023.99	21.037
1024.16	4.658
1024.32	0.491
1024.48	13.105
1024.64	-2.121
1024.80	14.681
1024.96	22.252
1025.12	20.670
1025.29	22.977
1025.45	7.477
1025.61	25.291
1025.77	14.058
1025.93	25.954
1026.09	26.966
1026.26	7.120
1026.42	10.992
1026.58	5.195
1026.74	30.258
1026.90	15.455
1027.06	8.917
1027.22	30.581
1027.38	18.125
1027.55	25.311
1027.71	16.667
1027.87	35.813
1028.03	41.694
1028.19	31.250
1028.35	46.552
1028.51	27.372
1028.67	40.702
1028.83	45.113
1029.00	56.180
1029.16	49.451
1029.32	68.313
1029.48	54.412
1029.64	53.642
1029.80	64.561
1029.96	71.246
1030.12	85.714
1030.28	64.189
1030.44	105.455
1030.61	80.859
1030.77	50.397
1030.93	70.722
1031.09	68.908
1031.25	78.140
1031.41	113.462
1031.57	73.993
1031.73	73.451
1031.89	79.592
1032.05	61.044
1032.21	92.825
1032.37	70.782
1032.53	77.273
1032.69	93.827
1032.86	81.111
1033.02	71.359
1033.18	46.914
1033.34	78.125
1033.50	64.103
1033.66	65.196
1033.82	70.996
1033.98	58.298
1034.14	67.262
1034.30	54.867
1034.46	66.667
1034.62	28.655
1034.78	51.570
1034.94	33.852
1035.10	51.000
1035.26	39.224
1035.42	68.235
1035.58	53.659
1035.74	40.090
1035.90	40.816
1036.06	24.390
1036.22	46.154
1036.38	61.972
1036.54	37.383
1036.70	36.264
1036.86	36.364
1037.02	21.379
1037.18	22.581
1037.34	38.095
1037.50	69.355
1037.66	69.231
1037.82	41.546
1037.98	39.594
1038.14	62.573
1038.30	45.192
1038.46	36.486
1038.62	34.010
1038.78	3.125
1038.94	31.250
1039.10	7.937
1039.26	11.377
1039.42	-10.185
1039.58	16.489
1039.74	39.189
1039.90	19.872
1040.06	15.686
>>>>>End Processed Spectral Data<<<<<
