SpectraSuite Data File
++++++++++++++++++++++++++++++++++++
Date: Mon Mar 27 19:59:08 EEST 2017
User: TheoProf
Dark Spectrum Present: Yes
Reference Spectrum Present: Yes
Number of Sampled Component Spectra: 1
Spectrometers: USB4C02475
Integration Time (usec): 426341 (USB4C02475)
Spectra Averaged: 1 (USB4C02475)
Boxcar Smoothing: 0 (USB4C02475)
Correct for Electrical Dark: No (USB4C02475)
Strobe/Lamp Enabled: No (USB4C02475)
Correct for Detector Non-linearity: No (USB4C02475)
Correct for Stray Light: No (USB4C02475)
Number of Pixels in Processed Spectrum: 3648
>>>>>Begin Processed Spectral Data<<<<<
344.91	79.412
345.13	79.412
345.35	79.412
345.57	0.000
345.79	24.074
346.00	-763.158
346.22	-192.105
346.44	475.000
346.66	941.667
346.87	298.333
347.09	0.000
347.31	-338.462
347.53	-189.286
347.74	-17.187
347.96	-51.389
348.18	360.000
348.40	1650.000
348.61	-260.000
348.83	-512.500
349.05	-85.714
349.27	80.000
349.48	-450.000
349.70	442.857
349.92	790.000
350.14	-1257.143
350.35	1650.000
350.57	368.182
350.79	400.000
351.01	283.673
351.22	221.622
351.44	-757.143
351.66	136.508
351.87	308.108
352.09	152.239
352.31	128.378
352.53	190.000
352.74	157.971
352.96	100.000
353.18	200.000
353.40	112.766
353.61	386.957
353.83	66.197
354.05	512.500
354.26	-1033.333
354.48	850.000
354.70	-380.000
354.92	136.986
355.13	371.429
355.35	-1090.909
355.57	-125.000
355.78	100.000
356.00	650.000
356.22	167.742
356.44	2125.000
356.65	1180.000
356.87	1040.000
357.09	585.000
357.30	434.783
357.52	75.000
357.74	580.000
357.95	204.688
358.17	-725.000
358.39	-106.250
358.60	2000.000
358.82	136.111
359.04	132.759
359.26	72.340
359.47	214.815
359.69	250.000
359.91	448.387
360.12	313.158
360.34	-863.636
360.56	500.000
360.77	20.000
360.99	-745.455
361.21	202.222
361.42	-3100.000
361.64	-257.143
361.86	396.429
362.07	320.833
362.29	256.667
362.51	185.714
362.72	345.000
362.94	135.714
363.16	376.667
363.37	205.000
363.59	178.571
363.81	175.676
364.02	456.250
364.24	7900.000
364.46	300.000
364.67	298.148
364.89	331.818
365.11	0.000
365.32	276.667
365.54	-15.625
365.76	-90.476
365.97	456.522
366.19	266.667
366.41	107.692
366.62	183.636
366.84	137.500
367.05	248.485
367.27	1200.000
367.49	42.857
367.70	76.087
367.92	319.512
368.14	110.769
368.35	350.000
368.57	150.602
368.79	53.846
369.00	203.509
369.22	174.000
369.43	112.088
369.65	1700.000
369.87	472.727
370.08	180.556
370.30	65.217
370.51	323.077
370.73	145.455
370.95	427.273
371.16	260.000
371.38	470.000
371.60	450.000
371.81	257.692
372.03	2050.000
372.24	168.571
372.46	244.444
372.68	129.577
372.89	149.333
373.11	89.109
373.32	-26.923
373.54	862.500
373.76	142.424
373.97	254.167
374.19	184.810
374.40	267.647
374.62	166.667
374.84	-453.846
375.05	191.429
375.27	500.000
375.48	309.524
375.70	270.968
375.92	118.966
376.13	-2400.000
376.35	119.048
376.56	55.102
376.78	110.000
376.99	287.879
377.21	188.372
377.43	212.903
377.64	300.000
377.86	135.000
378.07	61.905
378.29	85.714
378.51	144.706
378.72	282.051
378.94	88.889
379.15	78.947
379.37	88.393
379.58	101.538
379.80	136.066
380.01	92.308
380.23	215.000
380.45	117.778
380.66	33.333
380.88	77.941
381.09	146.809
381.31	135.897
381.52	78.462
381.74	63.158
381.95	71.429
382.17	57.143
382.39	56.944
382.60	148.571
382.82	65.455
383.03	96.203
383.25	136.842
383.46	78.182
383.68	69.697
383.89	70.270
384.11	25.000
384.32	124.194
384.54	14.286
384.76	100.000
384.97	66.129
385.19	84.286
385.40	143.836
385.62	101.429
385.83	48.235
386.05	101.724
386.26	74.380
386.48	52.747
386.69	68.000
386.91	50.000
387.12	63.333
387.34	79.279
387.55	66.667
387.77	71.318
387.98	75.887
388.20	71.963
388.41	86.905
388.63	85.606
388.84	22.472
389.06	97.857
389.27	38.806
389.49	56.863
389.70	80.916
389.92	33.566
390.13	26.316
390.35	23.664
390.56	46.094
390.78	78.431
390.99	47.423
391.21	60.294
391.42	73.684
391.64	100.000
391.85	27.358
392.07	81.197
392.28	15.823
392.50	46.875
392.71	59.843
392.93	36.364
393.14	69.767
393.36	70.492
393.57	32.407
393.79	57.927
394.00	42.609
394.22	52.586
394.43	30.526
394.65	41.667
394.86	15.698
395.08	-1.639
395.29	14.744
395.50	36.598
395.72	22.699
395.93	-2.581
396.15	16.667
396.36	30.719
396.58	28.082
396.79	40.491
397.01	27.778
397.22	21.649
397.44	43.961
397.65	33.974
397.87	49.180
398.08	4.575
398.29	51.220
398.51	50.746
398.72	22.959
398.94	21.961
399.15	32.124
399.37	44.509
399.58	16.157
399.80	-1.852
400.01	31.053
400.22	46.667
400.44	27.074
400.65	-25.000
400.87	29.004
401.08	31.313
401.30	25.926
401.51	33.990
401.72	32.489
401.94	25.833
402.15	22.603
402.37	0.556
402.58	25.357
402.80	18.254
403.01	-3.318
403.22	32.824
403.44	12.324
403.65	21.587
403.87	3.543
404.08	21.695
404.30	0.837
404.51	23.476
404.72	18.069
404.94	32.471
405.15	22.047
405.37	30.408
405.58	24.204
405.79	22.559
406.01	19.444
406.22	11.987
406.44	16.263
406.65	21.370
406.86	16.917
407.08	10.968
407.29	22.581
407.51	1.117
407.72	16.262
407.93	10.383
408.15	17.196
408.36	7.198
408.58	18.095
408.79	13.134
409.00	12.895
409.22	22.494
409.43	13.178
409.64	19.286
409.86	9.569
410.07	17.363
410.29	14.634
410.50	2.941
410.71	1.418
410.93	8.779
411.14	27.119
411.35	4.506
411.57	10.953
411.78	13.481
412.00	17.317
412.21	14.741
412.42	8.453
412.64	-2.148
412.85	10.265
413.06	5.319
413.28	7.372
413.49	7.850
413.70	12.793
413.92	15.041
414.13	5.678
414.34	5.289
414.56	9.493
414.77	4.459
414.98	9.919
415.20	1.958
415.41	10.703
415.63	5.207
415.84	12.519
416.05	-0.489
416.27	5.085
416.48	4.269
416.69	2.068
416.91	12.692
417.12	7.132
417.33	8.801
417.55	4.412
417.76	10.145
417.97	3.397
418.19	6.687
418.40	1.667
418.61	9.162
418.83	4.809
419.04	10.370
419.25	6.338
419.46	8.834
419.68	10.588
419.89	6.349
420.10	5.422
420.32	8.787
420.53	6.463
420.74	3.019
420.96	9.964
421.17	11.425
421.38	6.265
421.60	2.757
421.81	0.459
422.02	4.464
422.23	8.833
422.45	4.863
422.66	4.797
422.87	6.256
423.09	7.263
423.30	2.019
423.51	6.256
423.73	3.102
423.94	3.754
424.15	1.038
424.36	5.397
424.58	5.996
424.79	8.079
425.00	4.000
425.22	-1.218
425.43	5.104
425.64	4.076
425.85	4.417
426.07	7.228
426.28	8.515
426.49	4.015
426.71	3.558
426.92	7.771
427.13	3.670
427.34	11.903
427.56	11.886
427.77	14.159
427.98	11.781
428.19	18.190
428.41	22.173
428.62	30.284
428.83	27.806
429.04	33.818
429.26	36.385
429.47	41.894
429.68	46.768
429.89	49.743
430.11	51.581
430.32	59.671
430.53	65.306
430.74	66.085
430.96	67.958
431.17	67.198
431.38	66.106
431.59	71.375
431.81	73.174
432.02	74.201
432.23	74.168
432.44	77.618
432.66	74.584
432.87	79.452
433.08	85.153
433.29	81.558
433.51	83.602
433.72	85.989
433.93	82.017
434.14	81.687
434.35	80.295
434.57	81.589
434.78	84.309
434.99	79.779
435.20	84.027
435.42	84.000
435.63	86.346
435.84	89.429
436.05	89.804
436.26	86.550
436.48	89.653
436.69	87.288
436.90	90.162
437.11	88.977
437.32	94.402
437.54	89.651
437.75	90.573
437.96	85.341
438.17	88.832
438.38	87.839
438.60	89.239
438.81	86.820
439.02	86.353
439.23	82.735
439.44	88.272
439.66	85.943
439.87	91.067
440.08	85.674
440.29	86.746
440.50	91.070
440.72	84.715
440.93	87.830
441.14	89.209
441.35	91.839
441.56	85.707
441.77	86.799
441.99	85.386
442.20	88.138
442.41	93.648
442.62	88.555
442.83	91.839
443.04	87.225
443.26	92.275
443.47	92.599
443.68	89.883
443.89	88.830
444.10	92.987
444.31	90.324
444.53	93.333
444.74	87.481
444.95	91.914
445.16	88.426
445.37	92.133
445.58	93.666
445.80	95.156
446.01	92.925
446.22	88.102
446.43	88.502
446.64	87.513
446.85	89.388
447.06	87.293
447.28	85.976
447.49	92.635
447.70	86.286
447.91	89.995
448.12	90.204
448.33	87.578
448.54	89.094
448.76	90.994
448.97	87.899
449.18	88.212
449.39	89.980
449.60	90.221
449.81	95.037
450.02	87.030
450.23	90.375
450.45	84.182
450.66	83.881
450.87	87.784
451.08	83.356
451.29	88.019
451.50	91.245
451.71	86.617
451.92	86.166
452.13	84.904
452.35	86.609
452.56	90.922
452.77	87.004
452.98	88.359
453.19	90.826
453.40	85.829
453.61	89.913
453.82	91.483
454.03	86.431
454.25	86.027
454.46	88.337
454.67	89.815
454.88	86.741
455.09	90.737
455.30	88.423
455.51	86.221
455.72	93.624
455.93	82.304
456.14	90.966
456.35	87.702
456.56	90.290
456.78	85.569
456.99	89.819
457.20	86.554
457.41	84.187
457.62	86.576
457.83	85.857
458.04	87.842
458.25	82.612
458.46	83.702
458.67	86.360
458.88	82.297
459.09	80.757
459.30	75.675
459.51	73.840
459.73	71.504
459.94	67.912
460.15	64.410
460.36	61.918
460.57	58.656
460.78	56.939
460.99	53.382
461.20	46.213
461.41	43.457
461.62	38.206
461.83	36.545
462.04	34.284
462.25	29.367
462.46	26.721
462.67	22.849
462.88	20.167
463.09	18.435
463.30	13.263
463.51	15.465
463.72	11.935
463.93	8.663
464.15	5.933
464.36	5.719
464.57	5.421
464.78	6.857
464.99	3.978
465.20	5.564
465.41	1.936
465.62	3.490
465.83	2.837
466.04	2.037
466.25	3.409
466.46	3.185
466.67	2.178
466.88	1.345
467.09	0.804
467.30	1.164
467.51	3.009
467.72	1.285
467.93	0.059
468.14	2.303
468.35	3.746
468.56	2.678
468.77	2.250
468.98	2.834
469.19	3.553
469.40	1.748
469.61	2.327
469.82	1.441
470.03	1.170
470.24	1.531
470.45	3.533
470.66	1.632
470.87	1.566
471.08	1.376
471.29	1.717
471.50	2.747
471.71	1.524
471.92	1.998
472.13	1.997
472.34	1.271
472.55	2.570
472.76	1.978
472.97	2.354
473.18	1.949
473.39	3.349
473.60	1.870
473.81	1.582
474.01	3.320
474.22	-0.211
474.43	2.363
474.64	2.734
474.85	0.804
475.06	1.787
475.27	0.081
475.48	1.145
475.69	1.289
475.90	1.062
476.11	1.202
476.32	2.496
476.53	1.176
476.74	1.367
476.95	1.438
477.16	1.980
477.37	1.982
477.58	2.531
477.79	1.125
478.00	1.229
478.21	2.855
478.41	1.751
478.62	1.464
478.83	2.362
479.04	1.180
479.25	1.314
479.46	2.366
479.67	1.700
479.88	0.961
480.09	2.413
480.30	0.844
480.51	1.501
480.72	2.484
480.93	0.845
481.14	1.436
481.34	1.441
481.55	0.886
481.76	0.513
481.97	1.625
482.18	2.265
482.39	1.358
482.60	0.821
482.81	1.036
483.02	2.200
483.23	1.997
483.44	1.122
483.65	1.123
483.85	1.131
484.06	1.405
484.27	1.056
484.48	1.219
484.69	1.008
484.90	1.023
485.11	0.056
485.32	1.293
485.53	1.325
485.73	1.483
485.94	1.410
486.15	1.734
486.36	0.896
486.57	1.137
486.78	1.642
486.99	1.600
487.20	2.109
487.41	1.800
487.61	1.131
487.82	1.450
488.03	1.369
488.24	1.339
488.45	1.375
488.66	1.580
488.87	1.840
489.08	1.671
489.28	1.640
489.49	1.479
489.70	0.993
489.91	1.606
490.12	1.216
490.33	1.514
490.54	1.073
490.74	1.248
490.95	1.073
491.16	0.728
491.37	0.933
491.58	1.230
491.79	1.061
492.00	1.449
492.20	0.914
492.41	1.288
492.62	1.073
492.83	0.432
493.04	1.588
493.25	1.584
493.45	1.295
493.66	1.353
493.87	1.886
494.08	1.359
494.29	1.454
494.50	0.683
494.70	1.528
494.91	0.956
495.12	1.346
495.33	1.491
495.54	0.693
495.75	2.019
495.95	1.633
496.16	0.797
496.37	0.732
496.58	1.139
496.79	0.667
496.99	1.138
497.20	1.574
497.41	2.555
497.62	0.698
497.83	1.618
498.04	1.065
498.24	1.057
498.45	1.110
498.66	0.375
498.87	1.593
499.08	1.736
499.28	1.352
499.49	0.700
499.70	1.250
499.91	0.928
500.12	1.051
500.32	1.386
500.53	0.341
500.74	1.178
500.95	1.076
501.15	1.506
501.36	1.507
501.57	1.140
501.78	1.645
501.99	1.275
502.19	1.009
502.40	1.886
502.61	1.863
502.82	1.978
503.02	1.710
503.23	1.973
503.44	3.053
503.65	3.378
503.86	3.556
504.06	3.534
504.27	5.322
504.48	5.630
504.69	7.315
504.89	8.119
505.10	9.639
505.31	11.257
505.52	14.171
505.72	16.397
505.93	19.525
506.14	22.076
506.35	24.383
506.55	28.813
506.76	32.327
506.97	34.610
507.18	38.736
507.38	42.908
507.59	44.741
507.80	48.143
508.01	51.421
508.21	54.138
508.42	58.707
508.63	62.394
508.84	63.395
509.04	65.920
509.25	68.660
509.46	70.920
509.67	74.233
509.87	75.305
510.08	76.600
510.29	76.803
510.49	80.312
510.70	78.210
510.91	79.813
511.12	80.218
511.32	81.663
511.53	83.134
511.74	83.283
511.94	84.315
512.15	85.413
512.36	85.598
512.57	83.176
512.77	85.782
512.98	84.372
513.19	84.662
513.39	84.626
513.60	82.813
513.81	84.952
514.01	85.719
514.22	87.235
514.43	86.752
514.64	86.308
514.84	86.661
515.05	86.438
515.26	89.264
515.46	87.686
515.67	89.104
515.88	88.577
516.08	88.195
516.29	88.951
516.50	88.029
516.70	88.234
516.91	87.985
517.12	89.176
517.32	88.382
517.53	88.907
517.74	89.622
517.95	91.045
518.15	91.440
518.36	92.500
518.57	91.461
518.77	90.169
518.98	92.008
519.19	90.220
519.39	91.769
519.60	90.836
519.80	92.108
520.01	92.228
520.22	93.493
520.42	90.799
520.63	91.035
520.84	89.546
521.04	92.438
521.25	90.720
521.46	91.950
521.66	91.198
521.87	90.717
522.08	89.999
522.28	91.505
522.49	91.311
522.70	90.833
522.90	90.966
523.11	90.791
523.31	91.321
523.52	90.546
523.73	92.500
523.93	91.578
524.14	91.754
524.35	90.877
524.55	91.783
524.76	91.246
524.97	90.377
525.17	88.468
525.38	90.339
525.58	91.053
525.79	90.433
526.00	89.753
526.20	90.905
526.41	88.334
526.61	89.447
526.82	89.105
527.03	90.038
527.23	89.499
527.44	90.006
527.64	88.295
527.85	89.936
528.06	90.647
528.26	90.089
528.47	89.871
528.68	89.944
528.88	90.893
529.09	89.082
529.29	89.944
529.50	88.674
529.70	89.107
529.91	88.031
530.12	86.273
530.32	85.252
530.53	86.248
530.73	84.900
530.94	82.589
531.15	80.999
531.35	78.026
531.56	74.292
531.76	74.295
531.97	70.215
532.17	67.397
532.38	63.568
532.59	59.865
532.79	57.257
533.00	52.372
533.20	48.474
533.41	45.162
533.61	41.354
533.82	38.762
534.03	34.228
534.23	31.306
534.44	29.193
534.64	26.881
534.85	24.034
535.05	21.700
535.26	19.432
535.46	17.258
535.67	14.809
535.88	13.263
536.08	11.586
536.29	9.467
536.49	8.604
536.70	6.861
536.90	6.038
537.11	4.735
537.31	3.579
537.52	3.474
537.72	2.785
537.93	2.299
538.13	1.834
538.34	1.210
538.55	1.318
538.75	0.949
538.96	0.840
539.16	0.855
539.37	1.009
539.57	0.567
539.78	0.759
539.98	0.632
540.19	0.513
540.39	1.202
540.60	0.880
540.80	0.682
541.01	0.795
541.21	0.528
541.42	0.598
541.62	0.561
541.83	0.882
542.03	0.969
542.24	0.400
542.44	0.749
542.65	0.640
542.85	0.788
543.06	0.775
543.26	0.976
543.47	0.689
543.67	0.451
543.88	0.860
544.08	0.649
544.29	1.164
544.49	0.539
544.70	0.551
544.90	0.451
545.11	0.605
545.31	0.808
545.52	0.468
545.72	0.753
545.93	0.732
546.13	0.978
546.34	0.766
546.54	0.456
546.75	0.793
546.95	0.668
547.15	0.458
547.36	0.269
547.56	0.718
547.77	0.836
547.97	0.362
548.18	0.502
548.38	0.555
548.59	0.432
548.79	0.469
549.00	0.580
549.20	0.439
549.41	0.510
549.61	0.726
549.81	0.545
550.02	0.536
550.22	0.395
550.43	0.659
550.63	0.534
550.84	0.791
551.04	0.475
551.25	0.588
551.45	0.183
551.65	0.905
551.86	0.507
552.06	0.798
552.27	0.982
552.47	0.211
552.68	0.345
552.88	0.183
553.08	0.394
553.29	0.691
553.49	0.852
553.70	0.601
553.90	0.409
554.11	0.971
554.31	0.529
554.51	0.699
554.72	0.418
554.92	0.728
555.13	0.904
555.33	0.588
555.53	0.517
555.74	0.452
555.94	0.802
556.15	0.763
556.35	0.468
556.56	0.866
556.76	0.575
556.96	0.474
557.17	0.426
557.37	0.857
557.58	0.762
557.78	0.463
557.98	0.448
558.19	0.501
558.39	0.446
558.59	0.806
558.80	0.779
559.00	0.592
559.21	0.744
559.41	0.709
559.61	0.515
559.82	0.590
560.02	0.711
560.23	0.701
560.43	0.742
560.63	0.263
560.84	0.870
561.04	0.597
561.24	0.642
561.45	0.796
561.65	0.674
561.85	0.639
562.06	0.645
562.26	0.457
562.47	0.770
562.67	0.536
562.87	0.709
563.08	0.759
563.28	0.848
563.48	0.832
563.69	0.554
563.89	1.161
564.09	0.825
564.30	0.697
564.50	0.710
564.70	1.013
564.91	0.713
565.11	0.906
565.31	0.447
565.52	0.957
565.72	0.919
565.92	0.822
566.13	0.704
566.33	1.322
566.53	1.063
566.74	0.970
566.94	0.794
567.14	0.712
567.35	0.945
567.55	0.884
567.75	1.443
567.96	1.642
568.16	2.548
568.36	2.805
568.57	3.128
568.77	3.427
568.97	3.981
569.18	4.841
569.38	6.051
569.58	7.010
569.79	7.560
569.99	9.034
570.19	10.819
570.39	11.903
570.60	13.633
570.80	16.443
571.00	18.331
571.21	20.477
571.41	23.398
571.61	25.146
571.82	27.892
572.02	31.387
572.22	32.962
572.42	36.804
572.63	39.845
572.83	43.256
573.03	45.704
573.24	48.987
573.44	51.586
573.64	54.096
573.84	57.902
574.05	59.537
574.25	63.390
574.45	65.600
574.66	68.204
574.86	70.579
575.06	72.905
575.26	76.087
575.47	77.672
575.67	80.499
575.87	80.699
576.07	82.116
576.28	84.195
576.48	85.056
576.68	85.848
576.88	86.568
577.09	88.904
577.29	89.225
577.49	89.737
577.69	91.453
577.90	89.969
578.10	89.617
578.30	91.297
578.50	91.699
578.71	90.150
578.91	90.404
579.11	92.509
579.31	92.318
579.52	92.347
579.72	92.096
579.92	92.527
580.12	91.650
580.33	92.888
580.53	91.690
580.73	92.027
580.93	91.888
581.13	91.991
581.34	91.521
581.54	90.289
581.74	90.301
581.94	91.986
582.15	91.344
582.35	90.930
582.55	91.559
582.75	90.599
582.95	90.837
583.16	90.491
583.36	93.050
583.56	91.683
583.76	91.888
583.96	92.521
584.17	92.609
584.37	92.590
584.57	92.827
584.77	92.863
584.97	93.547
585.18	93.407
585.38	93.163
585.58	92.398
585.78	93.002
585.98	92.538
586.19	93.759
586.39	92.161
586.59	92.589
586.79	93.595
586.99	92.520
587.20	93.334
587.40	93.713
587.60	94.446
587.80	92.003
588.00	93.288
588.20	94.420
588.41	93.713
588.61	94.431
588.81	93.173
589.01	93.557
589.21	93.493
589.41	93.542
589.62	93.647
589.82	94.302
590.02	93.304
590.22	93.814
590.42	93.328
590.62	93.511
590.83	92.695
591.03	92.561
591.23	93.346
591.43	94.348
591.63	93.338
591.83	92.874
592.03	93.778
592.24	92.425
592.44	91.797
592.64	91.232
592.84	90.474
593.04	92.047
593.24	89.606
593.44	90.396
593.65	89.482
593.85	89.889
594.05	89.302
594.25	90.946
594.45	89.747
594.65	90.188
594.85	90.340
595.06	90.968
595.26	90.203
595.46	90.909
595.66	90.915
595.86	90.937
596.06	91.818
596.26	89.967
596.46	90.686
596.66	92.087
596.87	91.071
597.07	91.807
597.27	91.783
597.47	93.682
597.67	92.745
597.87	91.469
598.07	92.417
598.27	90.347
598.47	92.737
598.67	91.716
598.88	91.629
599.08	91.420
599.28	91.492
599.48	90.740
599.68	91.284
599.88	89.972
600.08	90.979
600.28	91.991
600.48	90.465
600.68	90.547
600.88	90.734
601.09	91.594
601.29	91.766
601.49	91.243
601.69	91.140
601.89	90.871
602.09	91.355
602.29	90.467
602.49	91.080
602.69	91.110
602.89	91.455
603.09	90.726
603.29	91.104
603.49	89.760
603.69	90.671
603.90	90.912
604.10	90.447
604.30	91.055
604.50	89.999
604.70	90.421
604.90	90.899
605.10	90.230
605.30	90.491
605.50	90.268
605.70	89.861
605.90	91.481
606.10	89.981
606.30	91.136
606.50	91.494
606.70	90.930
606.90	91.365
607.10	92.045
607.30	91.163
607.50	92.229
607.70	91.719
607.90	91.716
608.10	91.426
608.30	91.697
608.50	90.762
608.70	91.428
608.90	91.023
609.11	89.391
609.31	90.080
609.51	90.811
609.71	91.398
609.91	90.183
610.11	90.710
610.31	91.483
610.51	92.129
610.71	92.322
610.91	92.266
611.11	92.676
611.31	92.637
611.51	91.351
611.71	91.488
611.91	90.417
612.11	90.447
612.31	90.564
612.51	89.584
612.71	89.174
612.91	91.688
613.11	90.539
613.31	90.945
613.51	91.241
613.71	90.797
613.91	90.730
614.11	90.076
614.31	89.257
614.50	88.206
614.70	88.042
614.90	88.626
615.10	88.678
615.30	87.309
615.50	86.965
615.70	86.985
615.90	88.240
616.10	87.980
616.30	87.420
616.50	87.023
616.70	88.599
616.90	90.112
617.10	88.851
617.30	89.862
617.50	90.547
617.70	89.254
617.90	89.225
618.10	89.336
618.30	89.128
618.50	90.220
618.70	90.657
618.90	90.293
619.10	90.514
619.30	89.693
619.49	90.916
619.69	90.036
619.89	89.619
620.09	90.063
620.29	89.379
620.49	90.163
620.69	90.398
620.89	89.490
621.09	90.474
621.29	89.723
621.49	89.397
621.69	89.243
621.89	89.594
622.09	87.849
622.29	88.713
622.48	88.926
622.68	87.977
622.88	88.038
623.08	86.854
623.28	86.054
623.48	85.941
623.68	86.123
623.88	86.477
624.08	86.503
624.28	85.785
624.48	85.612
624.67	85.604
624.87	84.923
625.07	84.337
625.27	84.567
625.47	83.391
625.67	82.492
625.87	81.126
626.07	80.248
626.27	79.283
626.47	78.493
626.66	75.486
626.86	75.130
627.06	73.857
627.26	71.109
627.46	69.618
627.66	68.232
627.86	67.380
628.06	64.914
628.25	63.024
628.45	60.894
628.65	57.514
628.85	56.098
629.05	53.997
629.25	51.295
629.45	48.521
629.65	47.115
629.84	44.609
630.04	42.031
630.24	39.555
630.44	37.711
630.64	35.428
630.84	32.544
631.04	31.542
631.23	28.827
631.43	26.815
631.63	24.935
631.83	22.771
632.03	20.702
632.23	18.873
632.42	17.387
632.62	15.649
632.82	14.154
633.02	13.481
633.22	11.962
633.42	10.748
633.62	9.560
633.81	8.464
634.01	7.102
634.21	6.638
634.41	5.650
634.61	4.818
634.80	3.995
635.00	3.124
635.20	2.898
635.40	2.613
635.60	2.003
635.80	2.174
635.99	1.411
636.19	1.250
636.39	0.957
636.59	0.834
636.79	0.715
636.98	0.654
637.18	0.779
637.38	0.436
637.58	0.693
637.78	0.360
637.97	0.434
638.17	0.409
638.37	0.083
638.57	0.439
638.77	0.730
638.96	0.481
639.16	0.523
639.36	0.476
639.56	0.374
639.76	0.378
639.95	0.553
640.15	0.431
640.35	0.426
640.55	0.407
640.75	0.124
640.94	0.396
641.14	0.443
641.34	0.304
641.54	0.281
641.73	0.362
641.93	0.373
642.13	0.171
642.33	0.173
642.53	0.151
642.72	0.195
642.92	0.351
643.12	0.064
643.32	0.301
643.51	0.535
643.71	0.223
643.91	0.143
644.11	0.112
644.30	0.400
644.50	0.194
644.70	0.270
644.90	0.309
645.09	0.340
645.29	0.324
645.49	0.164
645.69	0.226
645.88	0.036
646.08	0.315
646.28	0.398
646.48	0.151
646.67	0.226
646.87	0.319
647.07	0.147
647.26	0.183
647.46	0.298
647.66	0.205
647.86	-0.094
648.05	0.158
648.25	0.197
648.45	0.086
648.65	0.111
648.84	0.341
649.04	0.268
649.24	0.153
649.43	0.324
649.63	0.189
649.83	0.361
650.03	0.303
650.22	0.114
650.42	0.238
650.62	0.260
650.81	0.103
651.01	0.000
651.21	0.284
651.40	0.174
651.60	0.008
651.80	0.103
652.00	0.031
652.19	0.157
652.39	0.114
652.59	0.000
652.78	0.219
652.98	0.095
653.18	0.156
653.37	0.169
653.57	0.024
653.77	0.055
653.96	-0.035
654.16	0.303
654.36	0.097
654.55	0.179
654.75	0.297
654.95	0.321
655.14	0.239
655.34	0.285
655.54	0.149
655.73	0.103
655.93	0.106
656.13	0.072
656.32	0.157
656.52	0.201
656.72	0.295
656.91	0.337
657.11	0.195
657.31	0.103
657.50	0.093
657.70	0.164
657.90	0.148
658.09	-0.094
658.29	0.251
658.49	-0.012
658.68	0.164
658.88	0.221
659.07	0.066
659.27	0.189
659.47	0.125
659.66	0.227
659.86	0.273
660.06	0.301
660.25	0.184
660.45	0.207
660.64	0.055
660.84	0.323
661.04	0.253
661.23	0.246
661.43	0.101
661.63	0.181
661.82	0.112
662.02	0.059
662.21	0.118
662.41	0.101
662.61	0.233
662.80	0.242
663.00	0.277
663.19	0.099
663.39	0.266
663.59	0.140
663.78	0.094
663.98	0.118
664.17	0.012
664.37	0.138
664.57	0.000
664.76	0.202
664.96	0.140
665.15	0.248
665.35	-0.078
665.55	-0.121
665.74	0.077
665.94	0.156
666.13	0.046
666.33	0.176
666.53	0.058
666.72	0.231
666.92	0.141
667.11	0.118
667.31	0.082
667.50	-0.086
667.70	0.079
667.90	0.239
668.09	-0.097
668.29	-0.070
668.48	-0.012
668.68	-0.110
668.87	0.113
669.07	0.149
669.26	0.307
669.46	0.164
669.66	0.012
669.85	-0.110
670.05	0.114
670.24	0.166
670.44	0.258
670.63	0.031
670.83	0.307
671.02	0.016
671.22	0.031
671.42	-0.184
671.61	-0.051
671.81	0.102
672.00	0.157
672.20	0.334
672.39	0.109
672.59	0.127
672.78	0.317
672.98	0.206
673.17	-0.079
673.37	-0.138
673.56	0.051
673.76	0.016
673.95	0.121
674.15	-0.024
674.34	-0.067
674.54	-0.093
674.73	0.109
674.93	0.117
675.13	-0.019
675.32	0.395
675.52	0.023
675.71	-0.031
675.91	0.223
676.10	0.066
676.30	0.043
676.49	-0.004
676.69	0.154
676.88	-0.004
677.08	0.118
677.27	0.095
677.47	0.012
677.66	0.059
677.86	0.109
678.05	0.004
678.24	0.051
678.44	0.070
678.63	0.059
678.83	0.078
679.02	0.090
679.22	-0.075
679.41	-0.117
679.61	-0.149
679.80	0.043
680.00	0.039
680.19	-0.070
680.39	-0.031
680.58	-0.105
680.78	0.160
680.97	-0.027
681.17	-0.063
681.36	-0.024
681.56	0.047
681.75	0.177
681.94	0.031
682.14	-0.032
682.33	-0.067
682.53	0.199
682.72	0.255
682.92	-0.079
683.11	-0.117
683.31	-0.036
683.50	-0.047
683.69	-0.020
683.89	0.016
684.08	0.158
684.28	0.090
684.47	0.036
684.67	-0.052
684.86	0.075
685.06	-0.098
685.25	-0.111
685.44	0.102
685.64	0.106
685.83	0.047
686.03	-0.091
686.22	0.090
686.42	-0.004
686.61	-0.008
686.80	-0.127
687.00	0.083
687.19	-0.111
687.39	0.055
687.58	-0.040
687.77	0.155
687.97	0.076
688.16	-0.161
688.36	-0.084
688.55	0.004
688.74	0.202
688.94	-0.151
689.13	-0.097
689.33	0.028
689.52	-0.024
689.71	0.128
689.91	0.040
690.10	0.044
690.30	-0.075
690.49	-0.052
690.68	-0.040
690.88	0.139
691.07	-0.028
691.27	0.067
691.46	-0.004
691.65	-0.008
691.85	0.119
692.04	0.028
692.23	-0.060
692.43	-0.081
692.62	0.100
692.82	0.142
693.01	0.008
693.20	0.145
693.40	0.080
693.59	-0.048
693.78	0.020
693.98	-0.032
694.17	-0.016
694.36	0.020
694.56	0.123
694.75	0.100
694.94	-0.056
695.14	0.140
695.33	0.107
695.53	-0.040
695.72	0.004
695.91	0.072
696.11	-0.156
696.30	-0.040
696.49	-0.093
696.69	-0.008
696.88	0.016
697.07	-0.138
697.27	0.136
697.46	0.069
697.65	-0.048
697.85	-0.117
698.04	-0.077
698.23	0.181
698.43	0.134
698.62	0.008
698.81	0.020
699.01	0.074
699.20	0.105
699.39	0.028
699.58	0.269
699.78	0.195
699.97	0.045
700.16	0.066
700.36	0.135
700.55	0.098
700.74	-0.069
700.94	-0.004
701.13	0.138
701.32	-0.057
701.52	-0.150
701.71	0.110
701.90	0.204
702.09	-0.045
702.29	0.074
702.48	0.025
702.67	-0.008
702.87	0.118
703.06	0.193
703.25	0.337
703.44	-0.045
703.64	0.149
703.83	0.074
704.02	0.271
704.22	0.131
704.41	-0.041
704.60	0.086
704.79	-0.041
704.99	0.058
705.18	-0.098
705.37	0.004
705.56	-0.041
705.76	0.260
705.95	0.108
706.14	-0.180
706.33	-0.270
706.53	0.037
706.72	0.217
706.91	0.091
707.11	0.075
707.30	-0.083
707.49	0.251
707.68	0.141
707.88	0.038
708.07	-0.192
708.26	0.074
708.45	0.244
708.64	0.203
708.84	0.125
709.03	0.182
709.22	-0.096
709.41	0.046
709.61	-0.202
709.80	0.223
709.99	0.033
710.18	-0.013
710.38	0.191
710.57	0.088
710.76	-0.072
710.95	0.250
711.14	0.163
711.34	-0.025
711.53	0.042
711.72	0.030
711.91	0.212
712.11	0.017
712.30	0.013
712.49	-0.009
712.68	0.046
712.87	0.072
713.07	0.114
713.26	0.004
713.45	0.314
713.64	0.089
713.83	0.013
714.03	0.127
714.22	0.008
714.41	0.173
714.60	0.051
714.79	0.038
714.99	0.042
715.18	-0.060
715.37	-0.149
715.56	0.107
715.75	0.183
715.94	0.022
716.14	-0.248
716.33	-0.043
716.52	-0.250
716.71	0.213
716.90	0.060
717.10	0.133
717.29	0.030
717.48	0.026
717.67	-0.004
717.86	-0.026
718.05	-0.086
718.24	-0.134
718.44	0.017
718.63	0.095
718.82	0.251
719.01	-0.074
719.20	0.164
719.39	-0.217
719.59	0.043
719.78	-0.095
719.97	0.022
720.16	0.233
720.35	0.114
720.54	0.104
720.73	0.000
720.93	0.226
721.12	0.035
721.31	-0.048
721.50	0.258
721.69	0.096
721.88	0.114
722.07	0.022
722.27	-0.004
722.46	-0.022
722.65	0.115
722.84	0.097
723.03	-0.013
723.22	-0.088
723.41	0.159
723.60	0.017
723.79	-0.242
723.99	0.066
724.18	0.075
724.37	0.185
724.56	0.145
724.75	-0.070
724.94	-0.045
725.13	0.106
725.32	0.298
725.51	0.031
725.71	0.027
725.90	0.111
726.09	-0.054
726.28	-0.040
726.47	0.089
726.66	-0.040
726.85	-0.031
727.04	0.031
727.23	-0.044
727.42	-0.153
727.61	-0.196
727.81	0.018
728.00	-0.099
728.19	-0.013
728.38	-0.183
728.57	-0.036
728.76	0.000
728.95	0.014
729.14	-0.059
729.33	-0.009
729.52	-0.040
729.71	0.152
729.90	-0.179
730.09	0.125
730.28	-0.058
730.48	0.167
730.67	0.054
730.86	0.063
731.05	0.332
731.24	0.204
731.43	-0.054
731.62	0.032
731.81	-0.127
732.00	0.135
732.19	0.023
732.38	0.123
732.57	0.144
732.76	0.228
732.95	0.156
733.14	0.104
733.33	0.266
733.52	0.037
733.71	0.214
733.90	0.073
734.09	0.009
734.28	0.059
734.47	0.110
734.66	-0.023
734.85	0.068
735.04	0.064
735.23	0.000
735.42	-0.014
735.61	-0.078
735.81	0.295
736.00	0.125
736.19	0.064
736.38	-0.078
736.57	-0.152
736.76	-0.055
736.95	-0.349
737.14	0.297
737.33	0.110
737.52	0.129
737.71	0.121
737.90	0.244
738.09	0.074
738.28	0.102
738.47	-0.186
738.66	0.019
738.85	-0.028
739.04	0.121
739.22	0.208
739.41	0.014
739.60	0.023
739.79	0.199
739.98	0.218
740.17	0.023
740.36	0.099
740.55	-0.037
740.74	-0.047
740.93	-0.005
741.12	0.113
741.31	0.141
741.50	0.371
741.69	-0.131
741.88	0.024
742.07	-0.056
742.26	0.084
742.45	0.288
742.64	0.259
742.83	0.080
743.02	-0.145
743.21	0.085
743.40	0.128
743.59	-0.128
743.78	-0.217
743.97	0.147
744.16	-0.109
744.34	-0.170
744.53	-0.085
744.72	0.285
744.91	-0.005
745.10	0.028
745.29	0.085
745.48	0.086
745.67	-0.038
745.86	0.195
746.05	0.000
746.24	0.168
746.43	0.096
746.62	0.000
746.81	0.010
747.00	0.367
747.18	0.140
747.37	0.048
747.56	-0.391
747.75	0.014
747.94	0.077
748.13	0.194
748.32	0.039
748.51	0.170
748.70	0.155
748.89	0.005
749.08	0.062
749.26	-0.251
749.45	0.327
749.64	0.048
749.83	0.077
750.02	0.367
750.21	-0.188
750.40	0.270
750.59	0.160
750.78	0.005
750.96	-0.069
751.15	-0.145
751.34	0.188
751.53	-0.039
751.72	-0.044
751.91	-0.131
752.10	-0.280
752.29	0.337
752.47	0.171
752.66	-0.039
752.85	-0.005
753.04	0.084
753.23	-0.083
753.42	-0.133
753.61	0.218
753.80	0.288
753.98	0.183
754.17	0.098
754.36	0.348
754.55	-0.152
754.74	-0.157
754.93	0.060
755.12	0.025
755.30	0.088
755.49	0.192
755.68	0.059
755.87	0.158
756.06	0.123
756.25	0.000
756.43	0.114
756.62	-0.070
756.81	0.129
757.00	0.164
757.19	-0.194
757.38	-0.015
757.56	0.255
757.75	-0.015
757.94	-0.196
758.13	-0.025
758.32	-0.005
758.51	0.070
758.69	-0.095
758.88	0.219
759.07	0.371
759.26	0.035
759.45	-0.075
759.63	0.401
759.82	0.100
760.01	-0.182
760.20	0.225
760.39	-0.108
760.57	-0.132
760.76	0.151
760.95	-0.020
761.14	0.036
761.33	0.121
761.51	0.137
761.70	-0.210
761.89	0.263
762.08	-0.091
762.27	0.116
762.45	-0.036
762.64	-0.076
762.83	0.107
763.02	-0.082
763.21	-0.184
763.39	-0.088
763.58	0.046
763.77	-0.117
763.96	-0.192
764.14	0.223
764.33	-0.026
764.52	0.222
764.71	0.108
764.89	0.015
765.08	0.196
765.27	0.129
765.46	0.164
765.65	0.201
765.83	0.172
766.02	0.026
766.21	0.129
766.40	-0.193
766.58	0.214
766.77	-0.068
766.96	0.082
767.15	-0.230
767.33	0.130
767.52	0.110
767.71	0.168
767.90	-0.215
768.08	0.157
768.27	0.173
768.46	-0.073
768.64	0.228
768.83	-0.037
769.02	0.026
769.21	0.189
769.39	0.232
769.58	0.217
769.77	0.418
769.96	-0.069
770.14	0.063
770.33	0.064
770.52	0.192
770.70	0.090
770.89	-0.042
771.08	0.091
771.27	0.204
771.45	0.000
771.64	0.385
771.83	0.436
772.01	0.059
772.20	0.198
772.39	0.037
772.57	0.102
772.76	0.048
772.95	0.238
773.14	-0.059
773.32	-0.232
773.51	0.216
773.70	-0.097
773.88	0.141
774.07	-0.060
774.26	0.151
774.44	0.016
774.63	-0.131
774.82	-0.006
775.00	0.251
775.19	0.005
775.38	0.175
775.56	0.016
775.75	0.179
775.94	0.165
776.12	-0.149
776.31	0.109
776.50	0.055
776.68	0.172
776.87	-0.055
777.06	0.280
777.24	-0.179
777.43	0.145
777.62	0.000
777.80	-0.066
777.99	0.100
778.18	0.435
778.36	-0.062
778.55	0.327
778.74	0.507
778.92	0.084
779.11	0.106
779.29	0.085
779.48	0.084
779.67	0.169
779.85	0.186
780.04	0.313
780.23	0.103
780.41	0.203
780.60	0.159
780.79	0.142
780.97	0.131
781.16	0.011
781.34	0.118
781.53	0.278
781.72	-0.011
781.90	0.183
782.09	-0.086
782.28	0.139
782.46	0.110
782.65	0.222
782.83	0.162
783.02	-0.076
783.21	-0.229
783.39	0.281
783.58	0.214
783.76	-0.106
783.95	0.164
784.14	-0.018
784.32	-0.123
784.51	0.152
784.69	-0.053
784.88	0.294
785.06	-0.230
785.25	-0.035
785.44	0.678
785.62	0.330
785.81	-0.006
785.99	0.006
786.18	-0.006
786.37	0.313
786.55	0.006
786.74	0.359
786.92	0.407
787.11	-0.108
787.29	-0.018
787.48	0.060
787.67	-0.078
787.85	0.078
788.04	-0.103
788.22	-0.018
788.41	0.352
788.59	0.030
788.78	-0.191
788.96	0.475
789.15	0.144
789.34	0.358
789.52	-0.133
789.71	0.073
789.89	0.079
790.08	0.224
790.26	0.049
790.45	0.278
790.63	0.055
790.82	0.067
791.00	0.520
791.19	0.258
791.38	0.564
791.56	0.116
791.75	-0.190
791.93	0.105
792.12	0.086
792.30	0.112
792.49	0.123
792.67	0.025
792.86	0.104
793.04	0.356
793.23	0.419
793.41	0.547
793.60	0.124
793.78	-0.049
793.97	0.243
794.15	0.345
794.34	-0.118
794.52	0.088
794.71	0.329
794.89	0.306
795.08	0.635
795.26	-0.031
795.45	0.212
795.63	0.302
795.82	0.182
796.00	0.075
796.19	-0.283
796.37	0.491
796.56	0.214
796.74	0.560
796.93	0.311
797.11	0.434
797.30	0.118
797.48	0.386
797.67	0.489
797.85	0.212
798.04	0.125
798.22	0.218
798.41	0.169
798.59	0.445
798.77	0.093
798.96	-0.132
799.14	0.169
799.33	0.125
799.51	0.307
799.70	-0.099
799.88	0.069
800.07	0.062
800.25	0.151
800.44	0.217
800.62	0.000
800.80	0.403
800.99	0.025
801.17	-0.056
801.36	0.363
801.54	0.188
801.73	-0.114
801.91	-0.139
802.10	0.259
802.28	-0.172
802.46	0.385
802.65	0.069
802.83	0.235
803.02	0.431
803.20	0.064
803.39	0.057
803.57	0.026
803.75	0.126
803.94	0.375
804.12	0.153
804.31	-0.135
804.49	0.179
804.67	0.494
804.86	0.104
805.04	0.199
805.23	0.218
805.41	0.348
805.59	0.395
805.78	-0.090
805.96	-0.058
806.15	0.812
806.33	0.194
806.51	-0.272
806.70	-0.052
806.88	0.116
807.07	0.174
807.25	0.105
807.43	-0.053
807.62	0.231
807.80	0.106
807.99	0.256
808.17	0.119
808.35	0.297
808.54	0.523
808.72	0.152
808.90	0.381
809.09	-0.020
809.27	0.551
809.46	0.359
809.64	0.166
809.82	0.643
810.01	0.027
810.19	0.054
810.37	0.404
810.56	0.334
810.74	0.232
810.92	0.182
811.11	0.274
811.29	0.107
811.48	-0.145
811.66	0.054
811.84	0.365
812.03	0.163
812.21	0.103
812.39	0.137
812.58	0.145
812.76	0.398
812.94	0.283
813.13	0.096
813.31	0.454
813.49	0.228
813.68	0.332
813.86	0.499
814.04	0.271
814.23	0.327
814.41	0.014
814.59	0.323
814.78	0.360
814.96	0.465
815.14	0.028
815.33	0.092
815.51	0.502
815.69	0.063
815.87	-0.240
816.06	0.049
816.24	0.184
816.42	-0.007
816.61	-0.166
816.79	0.699
816.97	0.766
817.16	0.036
817.34	-0.180
817.52	0.029
817.70	0.620
817.89	-0.181
818.07	0.341
818.25	0.440
818.44	0.538
818.62	0.424
818.80	0.037
818.98	0.324
819.17	0.561
819.35	0.067
819.53	-0.022
819.72	0.177
819.90	0.219
820.08	0.007
820.26	0.134
820.45	0.469
820.63	0.705
820.81	0.293
820.99	0.313
821.18	0.528
821.36	0.346
821.54	0.409
821.73	0.568
821.91	0.129
822.09	0.061
822.27	0.472
822.46	0.427
822.64	0.176
822.82	0.743
823.00	-0.208
823.19	0.357
823.37	0.603
823.55	0.428
823.73	0.139
823.91	0.039
824.10	-0.255
824.28	0.031
824.46	0.385
824.64	-0.070
824.83	0.263
825.01	0.257
825.19	0.342
825.37	0.031
825.56	0.275
825.74	0.553
825.92	0.430
826.10	-0.223
826.28	0.681
826.47	0.893
826.65	0.479
826.83	0.594
827.01	0.127
827.19	0.345
827.38	0.317
827.56	0.679
827.74	0.416
827.92	0.650
828.10	0.858
828.29	0.113
828.47	0.188
828.65	0.414
828.83	0.788
829.01	0.293
829.20	-0.089
829.38	0.381
829.56	0.399
829.74	0.214
829.92	0.643
830.10	0.198
830.29	0.642
830.47	0.512
830.65	-0.042
830.83	0.429
831.01	0.806
831.20	0.829
831.38	0.571
831.56	1.152
831.74	0.739
831.92	0.775
832.10	0.226
832.29	0.809
832.47	0.774
832.65	0.845
832.83	0.534
833.01	0.349
833.19	0.736
833.37	0.628
833.56	1.020
833.74	1.088
833.92	1.009
834.10	0.716
834.28	0.249
834.46	1.382
834.64	0.954
834.83	0.637
835.01	1.377
835.19	1.158
835.37	0.837
835.55	0.175
835.73	0.813
835.91	1.165
836.09	0.651
836.28	1.210
836.46	1.071
836.64	1.553
836.82	1.294
837.00	1.326
837.18	1.136
837.36	1.645
837.54	1.004
837.72	1.568
837.91	0.851
838.09	0.818
838.27	1.266
838.45	1.271
838.63	1.104
838.81	1.451
838.99	1.040
839.17	0.587
839.35	1.225
839.53	0.892
839.72	1.273
839.90	0.985
840.08	1.404
840.26	1.631
840.44	1.614
840.62	1.322
840.80	1.164
840.98	1.068
841.16	1.006
841.34	1.561
841.52	0.788
841.70	0.606
841.89	0.613
842.07	1.543
842.25	1.309
842.43	0.828
842.61	1.375
842.79	0.820
842.97	0.739
843.15	0.727
843.33	1.165
843.51	0.584
843.69	1.223
843.87	0.509
844.05	1.219
844.23	0.981
844.41	0.553
844.59	0.649
844.77	0.760
844.95	0.699
845.13	0.121
845.31	0.794
845.50	0.592
845.68	0.482
845.86	0.491
846.04	1.531
846.22	0.835
846.40	-0.584
846.58	0.325
846.76	0.198
846.94	0.576
847.12	0.107
847.30	0.340
847.48	0.690
847.66	0.957
847.84	0.688
848.02	0.444
848.20	0.720
848.38	0.536
848.56	0.403
848.74	0.115
848.92	0.471
849.10	0.713
849.28	0.807
849.46	0.745
849.64	0.277
849.82	0.686
850.00	0.530
850.18	-0.010
850.36	0.404
850.54	0.393
850.72	0.019
850.90	0.886
851.08	0.640
851.26	0.574
851.44	0.382
851.62	0.694
851.80	0.861
851.98	0.385
852.16	0.244
852.34	0.237
852.52	0.405
852.70	0.774
852.87	0.274
853.05	0.330
853.23	0.341
853.41	0.931
853.59	0.800
853.77	0.920
853.95	0.994
854.13	-0.030
854.31	0.511
854.49	0.371
854.67	0.530
854.85	0.888
855.03	0.787
855.21	1.072
855.39	0.559
855.57	1.097
855.75	0.232
855.93	0.174
856.11	0.745
856.28	0.860
856.46	0.256
856.64	0.741
856.82	0.378
857.00	1.360
857.18	0.347
857.36	0.562
857.54	0.291
857.72	0.373
857.90	0.288
858.08	0.594
858.26	1.004
858.44	0.772
858.61	0.313
858.79	0.609
858.97	0.950
859.15	0.210
859.33	0.798
859.51	0.312
859.69	0.455
859.87	0.923
860.05	0.188
860.23	0.179
860.40	0.659
860.58	0.385
860.76	1.067
860.94	0.950
861.12	0.209
861.30	0.551
861.48	0.397
861.66	0.694
861.84	0.557
862.01	1.114
862.19	0.368
862.37	0.569
862.55	0.214
862.73	0.717
862.91	0.735
863.09	0.397
863.27	0.976
863.44	0.513
863.62	1.160
863.80	1.139
863.98	0.222
864.16	0.837
864.34	0.899
864.52	0.955
864.69	1.071
864.87	0.577
865.05	0.742
865.23	0.914
865.41	0.389
865.59	0.372
865.76	0.965
865.94	0.449
866.12	0.382
866.30	0.950
866.48	0.870
866.66	0.720
866.83	0.558
867.01	0.811
867.19	0.786
867.37	0.930
867.55	0.495
867.73	0.582
867.90	0.868
868.08	0.866
868.26	0.674
868.44	0.589
868.62	0.990
868.79	0.955
868.97	1.176
869.15	0.383
869.33	0.558
869.51	0.978
869.69	0.990
869.86	0.210
870.04	0.915
870.22	0.205
870.40	1.267
870.57	0.682
870.75	0.441
870.93	0.564
871.11	0.908
871.29	0.716
871.46	0.377
871.64	0.319
871.82	0.691
872.00	0.093
872.18	0.878
872.35	1.152
872.53	0.726
872.71	0.512
872.89	0.852
873.06	-0.442
873.24	0.821
873.42	1.528
873.60	0.771
873.77	-0.452
873.95	0.203
874.13	0.924
874.31	0.937
874.49	0.439
874.66	0.265
874.84	-0.357
875.02	0.273
875.20	0.156
875.37	0.743
875.55	0.376
875.73	-0.012
875.91	0.967
876.08	0.650
876.26	1.184
876.44	1.007
876.61	0.526
876.79	1.297
876.97	1.044
877.15	0.592
877.32	0.906
877.50	0.435
877.68	1.291
877.86	0.826
878.03	0.975
878.21	1.256
878.39	0.588
878.56	0.624
878.74	0.707
878.92	-0.037
879.10	0.098
879.27	0.549
879.45	0.690
879.63	0.484
879.80	0.810
879.98	-0.269
880.16	0.580
880.34	1.125
880.51	1.272
880.69	0.922
880.87	0.477
881.04	0.968
881.22	0.687
881.40	0.451
881.57	0.641
881.75	0.627
881.93	0.750
882.10	0.012
882.28	0.891
882.46	0.822
882.63	0.928
882.81	0.385
882.99	0.355
883.16	0.517
883.34	1.624
883.52	0.739
883.69	1.486
883.87	0.858
884.05	0.898
884.22	0.649
884.40	0.874
884.58	0.491
884.75	0.342
884.93	1.469
885.11	0.595
885.28	0.567
885.46	0.835
885.64	0.049
885.81	0.605
885.99	1.470
886.17	0.970
886.34	0.367
886.52	1.341
886.70	0.378
886.87	0.223
887.05	0.257
887.22	0.388
887.40	1.155
887.58	0.594
887.75	0.822
887.93	1.268
888.11	1.186
888.28	1.041
888.46	1.180
888.63	1.677
888.81	-0.164
888.99	1.287
889.16	0.855
889.34	0.736
889.51	1.601
889.69	0.289
889.87	0.716
890.04	0.742
890.22	0.797
890.39	0.306
890.57	1.050
890.75	0.300
890.92	1.218
891.10	1.464
891.27	1.600
891.45	1.417
891.63	0.931
891.80	1.915
891.98	0.510
892.15	0.514
892.33	0.410
892.51	0.495
892.68	1.140
892.86	1.013
893.03	2.064
893.21	0.809
893.38	0.725
893.56	0.908
893.74	1.783
893.91	0.616
894.09	0.658
894.26	1.355
894.44	0.746
894.61	1.168
894.79	1.011
894.96	1.729
895.14	1.858
895.32	1.583
895.49	1.890
895.67	1.192
895.84	1.586
896.02	2.761
896.19	2.289
896.37	1.829
896.54	3.332
896.72	2.648
896.89	2.670
897.07	3.197
897.25	3.966
897.42	3.934
897.60	3.852
897.77	4.497
897.95	3.735
898.12	4.636
898.30	5.452
898.47	4.103
898.65	4.975
898.82	5.044
899.00	5.159
899.17	6.528
899.35	6.837
899.52	6.276
899.70	5.431
899.87	6.474
900.05	6.962
900.22	6.887
900.40	7.575
900.57	7.248
900.75	8.385
900.92	7.935
901.10	6.537
901.27	8.079
901.45	7.989
901.62	8.689
901.80	8.589
901.97	9.246
902.15	8.917
902.32	9.480
902.50	9.892
902.67	8.547
902.85	10.134
903.02	10.611
903.20	11.305
903.37	10.608
903.54	10.419
903.72	10.815
903.89	10.838
904.07	11.570
904.24	11.617
904.42	12.749
904.59	13.459
904.77	14.300
904.94	14.565
905.12	15.533
905.29	14.874
905.47	15.729
905.64	15.768
905.81	17.496
905.99	17.995
906.16	17.732
906.34	18.422
906.51	18.626
906.69	19.695
906.86	19.207
907.03	19.086
907.21	19.231
907.38	20.654
907.56	18.925
907.73	21.117
907.91	20.365
908.08	20.913
908.25	20.587
908.43	20.582
908.60	22.798
908.78	21.785
908.95	21.440
909.13	21.746
909.30	21.596
909.47	21.452
909.65	22.142
909.82	23.356
910.00	21.762
910.17	21.602
910.34	20.826
910.52	20.213
910.69	20.332
910.87	19.899
911.04	20.971
911.21	19.612
911.39	19.489
911.56	17.905
911.73	18.038
911.91	18.075
912.08	19.891
912.26	18.760
912.43	17.291
912.60	17.733
912.78	16.728
912.95	16.124
913.13	15.772
913.30	15.842
913.47	15.190
913.65	16.053
913.82	15.716
913.99	15.663
914.17	15.200
914.34	15.495
914.51	15.616
914.69	15.885
914.86	15.692
915.03	14.496
915.21	14.803
915.38	15.284
915.56	15.986
915.73	14.585
915.90	15.227
916.08	14.164
916.25	14.995
916.42	14.609
916.60	15.183
916.77	15.279
916.94	13.445
917.12	16.260
917.29	15.182
917.46	16.188
917.64	14.758
917.81	15.424
917.98	16.364
918.16	16.770
918.33	17.329
918.50	17.019
918.67	15.533
918.85	17.595
919.02	18.310
919.19	18.355
919.37	19.344
919.54	18.977
919.71	19.211
919.89	19.317
920.06	19.493
920.23	21.112
920.41	20.202
920.58	20.530
920.75	22.486
920.92	20.575
921.10	21.131
921.27	23.646
921.44	22.913
921.62	23.567
921.79	24.904
921.96	24.610
922.13	25.359
922.31	23.902
922.48	25.667
922.65	26.430
922.82	26.149
923.00	26.378
923.17	26.649
923.34	26.908
923.52	26.700
923.69	28.884
923.86	29.520
924.03	29.094
924.21	31.552
924.38	32.107
924.55	31.667
924.72	32.717
924.90	34.883
925.07	34.374
925.24	36.956
925.41	37.502
925.59	35.820
925.76	36.939
925.93	36.397
926.10	38.581
926.28	40.279
926.45	41.855
926.62	41.752
926.79	42.940
926.96	41.963
927.14	43.644
927.31	46.274
927.48	45.243
927.65	44.598
927.83	48.388
928.00	48.459
928.17	50.350
928.34	51.847
928.51	51.688
928.69	49.510
928.86	54.192
929.03	53.439
929.20	53.560
929.37	52.720
929.55	54.939
929.72	54.230
929.89	55.680
930.06	57.254
930.23	55.392
930.41	57.202
930.58	55.007
930.75	58.549
930.92	59.460
931.09	57.079
931.27	57.206
931.44	56.944
931.61	57.100
931.78	58.968
931.95	58.564
932.12	61.346
932.30	59.717
932.47	58.339
932.64	59.817
932.81	59.533
932.98	58.177
933.16	61.484
933.33	57.854
933.50	60.292
933.67	59.849
933.84	58.637
934.01	57.889
934.18	61.312
934.36	60.191
934.53	59.964
934.70	58.773
934.87	59.922
935.04	57.121
935.21	59.052
935.38	60.501
935.56	59.622
935.73	59.459
935.90	60.156
936.07	56.331
936.24	58.979
936.41	56.260
936.58	57.193
936.76	57.463
936.93	54.784
937.10	58.992
937.27	55.597
937.44	55.878
937.61	57.421
937.78	55.535
937.95	57.668
938.13	57.997
938.30	55.471
938.47	56.762
938.64	56.592
938.81	53.721
938.98	54.664
939.15	54.189
939.32	54.497
939.49	55.000
939.66	54.523
939.84	54.447
940.01	51.426
940.18	50.207
940.35	53.333
940.52	52.947
940.69	52.474
940.86	50.716
941.03	51.621
941.20	49.094
941.37	48.202
941.54	46.583
941.71	46.234
941.89	46.930
942.06	47.597
942.23	43.919
942.40	44.416
942.57	44.146
942.74	41.927
942.91	42.238
943.08	42.129
943.25	36.929
943.42	40.335
943.59	39.736
943.76	37.334
943.93	36.058
944.10	35.707
944.27	38.464
944.44	32.660
944.61	34.215
944.79	34.734
944.96	34.008
945.13	35.371
945.30	30.690
945.47	29.557
945.64	33.088
945.81	29.616
945.98	31.460
946.15	30.940
946.32	27.942
946.49	31.198
946.66	31.938
946.83	30.158
947.00	29.824
947.17	30.780
947.34	29.427
947.51	28.779
947.68	30.488
947.85	28.875
948.02	28.596
948.19	26.452
948.36	30.869
948.53	28.109
948.70	29.757
948.87	30.563
949.04	29.115
949.21	30.256
949.38	30.564
949.55	29.452
949.72	31.337
949.89	30.307
950.06	28.541
950.23	32.008
950.40	30.783
950.57	31.078
950.74	30.015
950.91	31.951
951.08	32.971
951.25	31.132
951.42	33.449
951.59	32.436
951.76	32.239
951.93	30.985
952.10	32.804
952.27	32.287
952.44	32.402
952.61	33.830
952.77	32.164
952.94	35.935
953.11	35.246
953.28	33.742
953.45	32.342
953.62	33.224
953.79	31.390
953.96	32.616
954.13	32.373
954.30	32.708
954.47	34.244
954.64	30.767
954.81	33.139
954.98	30.477
955.15	31.447
955.32	33.232
955.49	29.430
955.65	29.342
955.82	29.436
955.99	30.659
956.16	27.845
956.33	30.641
956.50	29.263
956.67	28.312
956.84	27.063
957.01	28.123
957.18	24.301
957.35	24.697
957.52	25.543
957.68	26.180
957.85	25.293
958.02	24.216
958.19	22.525
958.36	21.243
958.53	20.654
958.70	21.615
958.87	17.536
959.04	18.701
959.21	16.228
959.37	16.031
959.54	17.913
959.71	16.324
959.88	15.074
960.05	15.968
960.22	13.885
960.39	14.406
960.56	14.928
960.72	14.452
960.89	14.541
961.06	13.858
961.23	13.423
961.40	13.928
961.57	10.054
961.74	10.882
961.90	14.083
962.07	11.124
962.24	10.366
962.41	13.370
962.58	10.160
962.75	8.327
962.92	8.000
963.08	11.781
963.25	9.012
963.42	11.448
963.59	11.384
963.76	12.182
963.93	12.617
964.10	11.209
964.26	11.905
964.43	10.098
964.60	9.003
964.77	9.294
964.94	11.116
965.10	11.789
965.27	10.471
965.44	10.238
965.61	10.208
965.78	9.388
965.95	10.965
966.11	11.148
966.28	11.125
966.45	11.945
966.62	13.047
966.79	14.079
966.95	11.283
967.12	12.747
967.29	14.657
967.46	13.210
967.63	14.698
967.79	14.540
967.96	14.164
968.13	14.037
968.30	18.255
968.47	16.448
968.63	17.426
968.80	16.571
968.97	16.350
969.14	17.922
969.31	19.226
969.47	17.254
969.64	20.478
969.81	17.314
969.98	21.063
970.14	17.393
970.31	18.156
970.48	19.222
970.65	20.450
970.81	21.547
970.98	21.907
971.15	18.866
971.32	20.751
971.48	18.756
971.65	19.826
971.82	21.132
971.99	18.432
972.15	19.716
972.32	20.991
972.49	19.758
972.66	19.793
972.82	18.582
972.99	18.982
973.16	22.761
973.33	20.479
973.49	18.247
973.66	17.606
973.83	17.211
974.00	21.180
974.16	17.789
974.33	16.751
974.50	17.096
974.67	15.423
974.83	17.169
975.00	17.518
975.17	11.698
975.33	15.929
975.50	14.437
975.67	17.996
975.84	14.467
976.00	16.508
976.17	16.470
976.34	13.606
976.50	10.356
976.67	11.312
976.84	9.972
977.00	11.910
977.17	11.075
977.34	11.382
977.50	7.844
977.67	9.180
977.84	9.857
978.01	9.127
978.17	11.746
978.34	10.045
978.51	7.941
978.67	10.179
978.84	10.274
979.01	6.789
979.17	7.468
979.34	4.861
979.51	7.823
979.67	10.353
979.84	9.563
980.01	7.255
980.17	3.776
980.34	5.736
980.51	4.809
980.67	9.392
980.84	8.452
981.01	5.276
981.17	9.367
981.34	9.831
981.50	8.038
981.67	6.691
981.84	3.667
982.00	9.286
982.17	2.976
982.34	4.756
982.50	1.613
982.67	6.182
982.84	8.020
983.00	3.639
983.17	2.083
983.33	6.065
983.50	9.773
983.67	2.630
983.83	2.576
984.00	8.827
984.17	8.716
984.33	2.780
984.50	6.726
984.66	7.728
984.83	6.011
985.00	3.396
985.16	3.834
985.33	5.116
985.49	5.189
985.66	5.479
985.83	6.742
985.99	6.399
986.16	4.738
986.32	0.442
986.49	4.772
986.66	5.429
986.82	3.709
986.99	3.772
987.15	3.576
987.32	2.609
987.49	7.799
987.65	3.537
987.82	5.616
987.98	6.134
988.15	8.604
988.31	5.735
988.48	5.212
988.65	4.196
988.81	2.853
988.98	6.728
989.14	0.077
989.31	5.973
989.47	6.112
989.64	5.292
989.80	9.326
989.97	6.943
990.14	3.936
990.30	2.970
990.47	7.356
990.63	10.476
990.80	3.733
990.96	5.969
991.13	3.309
991.29	2.166
991.46	5.744
991.62	10.336
991.79	3.778
991.95	7.375
992.12	7.718
992.29	6.717
992.45	8.529
992.62	6.044
992.78	9.233
992.95	4.475
993.11	8.441
993.28	6.583
993.44	1.300
993.61	5.556
993.77	3.465
993.94	10.246
994.10	8.492
994.27	2.234
994.43	8.014
994.60	1.388
994.76	3.687
994.93	3.339
995.09	11.131
995.26	8.815
995.42	7.079
995.59	7.650
995.75	4.273
995.92	7.665
996.08	11.842
996.25	7.217
996.41	5.046
996.58	10.718
996.74	7.921
996.91	7.797
997.07	7.301
997.23	11.742
997.40	10.243
997.56	9.282
997.73	10.375
997.89	6.395
998.06	3.834
998.22	8.940
998.39	6.856
998.55	3.202
998.72	9.910
998.88	7.903
999.05	1.132
999.21	10.081
999.37	12.052
999.54	10.337
999.70	5.573
999.87	8.305
1000.03	8.700
1000.20	4.017
1000.36	6.689
1000.52	13.235
1000.69	7.649
1000.85	5.015
1001.02	6.397
1001.18	2.756
1001.35	8.830
1001.51	5.152
1001.67	9.651
1001.84	14.924
1002.00	8.987
1002.17	7.232
1002.33	8.323
1002.50	8.645
1002.66	9.977
1002.82	11.486
1002.99	4.442
1003.15	14.850
1003.32	10.294
1003.48	11.497
1003.64	14.828
1003.81	11.823
1003.97	10.094
1004.14	7.513
1004.30	7.344
1004.46	13.626
1004.63	19.410
1004.79	15.148
1004.95	17.559
1005.12	9.937
1005.28	23.905
1005.45	12.515
1005.61	10.697
1005.77	14.840
1005.94	20.482
1006.10	13.098
1006.26	17.130
1006.43	14.414
1006.59	18.533
1006.76	18.231
1006.92	26.588
1007.08	15.242
1007.25	9.212
1007.41	16.454
1007.57	16.407
1007.74	22.997
1007.90	23.198
1008.06	20.414
1008.23	22.977
1008.39	29.349
1008.55	25.976
1008.72	17.118
1008.88	25.976
1009.04	28.271
1009.21	22.128
1009.37	24.576
1009.53	24.689
1009.70	23.077
1009.86	31.876
1010.02	14.809
1010.19	31.062
1010.35	33.037
1010.51	30.112
1010.68	32.877
1010.84	37.092
1011.00	29.147
1011.17	36.858
1011.33	31.003
1011.49	30.317
1011.66	45.748
1011.82	39.462
1011.98	33.333
1012.14	32.247
1012.31	34.498
1012.47	36.960
1012.63	47.642
1012.80	37.733
1012.96	37.793
1013.12	41.571
1013.29	36.796
1013.45	27.444
1013.61	35.987
1013.77	39.892
1013.94	42.971
1014.10	43.433
1014.26	40.850
1014.43	36.295
1014.59	51.663
1014.75	37.917
1014.91	46.642
1015.08	55.725
1015.24	42.410
1015.40	38.889
1015.56	48.507
1015.73	47.619
1015.89	50.000
1016.05	41.912
1016.21	42.430
1016.38	52.372
1016.54	53.774
1016.70	44.219
1016.86	67.429
1017.03	50.655
1017.19	46.403
1017.35	48.124
1017.51	45.244
1017.68	45.062
1017.84	38.211
1018.00	46.821
1018.16	50.000
1018.33	53.105
1018.49	46.653
1018.65	66.742
1018.81	45.906
1018.97	48.600
1019.14	50.422
1019.30	45.585
1019.46	55.556
1019.62	49.119
1019.79	52.509
1019.95	32.584
1020.11	51.264
1020.27	43.617
1020.43	34.690
1020.60	51.179
1020.76	44.592
1020.92	36.430
1021.08	39.326
1021.24	45.139
1021.41	48.538
1021.57	50.743
1021.73	45.588
1021.89	38.031
1022.05	52.538
1022.21	51.715
1022.38	37.788
1022.54	49.386
1022.70	35.467
1022.86	38.515
1023.02	43.382
1023.19	47.354
1023.35	50.794
1023.51	40.476
1023.67	41.361
1023.83	52.925
1023.99	63.110
1024.16	36.957
1024.32	41.278
1024.48	45.014
1024.64	36.364
1024.80	56.787
1024.96	59.786
1025.12	50.838
1025.29	42.298
1025.45	42.368
1025.61	50.291
1025.77	27.056
1025.93	47.837
1026.09	41.573
1026.26	38.188
1026.42	47.721
1026.58	43.506
1026.74	63.469
1026.90	51.818
1027.06	49.363
1027.22	44.954
1027.38	60.938
1027.55	58.921
1027.71	42.949
1027.87	54.821
1028.03	58.958
1028.19	41.912
1028.35	59.052
1028.51	41.241
1028.67	45.614
1028.83	49.248
1029.00	47.566
1029.16	57.143
1029.32	79.835
1029.48	73.529
1029.64	64.570
1029.80	57.544
1029.96	72.524
1030.12	61.224
1030.28	72.297
1030.44	85.455
1030.61	83.594
1030.77	50.794
1030.93	71.483
1031.09	71.429
1031.25	104.186
1031.41	88.462
1031.57	64.835
1031.73	65.044
1031.89	86.939
1032.05	70.683
1032.21	59.641
1032.37	58.025
1032.53	95.455
1032.69	103.292
1032.86	96.111
1033.02	83.010
1033.18	88.066
1033.34	88.021
1033.50	71.282
1033.66	77.941
1033.82	95.238
1033.98	72.340
1034.14	107.738
1034.30	80.973
1034.46	90.717
1034.62	88.889
1034.78	106.726
1034.94	71.206
1035.10	96.000
1035.26	101.724
1035.42	147.647
1035.58	128.659
1035.74	115.766
1035.90	87.245
1036.06	88.293
1036.22	95.673
1036.38	142.958
1036.54	114.953
1036.70	103.297
1036.86	129.545
1037.02	124.828
1037.18	106.989
1037.34	120.000
1037.50	145.161
1037.66	164.336
1037.82	104.831
1037.98	109.645
1038.14	122.222
1038.30	168.269
1038.46	139.865
1038.62	111.168
1038.78	140.625
1038.94	129.687
1039.10	90.476
1039.26	88.024
1039.42	189.815
1039.58	107.447
1039.74	117.568
1039.90	82.051
1040.06	203.922
>>>>>End Processed Spectral Data<<<<<
