SpectraSuite Data File
++++++++++++++++++++++++++++++++++++
Date: Mon Mar 27 19:55:56 EEST 2017
User: TheoProf
Dark Spectrum Present: Yes
Reference Spectrum Present: Yes
Number of Sampled Component Spectra: 1
Spectrometers: USB4C02475
Integration Time (usec): 426341 (USB4C02475)
Spectra Averaged: 1 (USB4C02475)
Boxcar Smoothing: 0 (USB4C02475)
Correct for Electrical Dark: No (USB4C02475)
Strobe/Lamp Enabled: No (USB4C02475)
Correct for Detector Non-linearity: No (USB4C02475)
Correct for Stray Light: No (USB4C02475)
Number of Pixels in Processed Spectrum: 3648
>>>>>Begin Processed Spectral Data<<<<<
344.91	5.882
345.13	5.882
345.35	5.882
345.57	0.000
345.79	42.593
346.00	-589.474
346.22	-178.947
346.44	600.000
346.66	1000.000
346.87	150.000
347.09	0.000
347.31	-761.538
347.53	-246.429
347.74	-42.187
347.96	-61.111
348.18	430.000
348.40	1575.000
348.61	-248.000
348.83	-43.750
349.05	-385.714
349.27	68.571
349.48	-333.333
349.70	247.619
349.92	880.000
350.14	-328.571
350.35	1700.000
350.57	163.636
350.79	271.429
351.01	208.163
351.22	243.243
351.44	-571.429
351.66	133.333
351.87	178.378
352.09	164.179
352.31	128.378
352.53	246.667
352.74	121.739
352.96	173.684
353.18	185.417
353.40	244.681
353.61	334.783
353.83	70.423
354.05	712.500
354.26	-2200.000
354.48	2275.000
354.70	60.000
354.92	97.260
355.13	353.571
355.35	-663.636
355.57	-125.000
355.78	69.737
356.00	533.333
356.22	161.290
356.44	650.000
356.65	1400.000
356.87	1420.000
357.09	515.000
357.30	252.174
357.52	189.286
357.74	446.667
357.95	121.875
358.17	-125.000
358.39	-87.500
358.60	1000.000
358.82	161.111
359.04	96.552
359.26	165.957
359.47	174.074
359.69	275.000
359.91	316.129
360.12	273.684
360.34	-900.000
360.56	385.714
360.77	-200.000
360.99	-518.182
361.21	146.667
361.42	-3000.000
361.64	-1214.286
361.86	371.429
362.07	395.833
362.29	170.000
362.51	205.714
362.72	615.000
362.94	85.714
363.16	263.333
363.37	40.000
363.59	162.857
363.81	183.784
364.02	731.250
364.24	5200.000
364.46	285.185
364.67	224.074
364.89	318.182
365.11	0.000
365.32	263.333
365.54	-128.125
365.76	-178.571
365.97	452.174
366.19	172.222
366.41	119.231
366.62	187.273
366.84	101.250
367.05	218.182
367.27	3700.000
367.49	350.000
367.70	139.130
367.92	207.317
368.14	52.308
368.35	134.615
368.57	113.253
368.79	75.824
369.00	178.947
369.22	114.000
369.43	124.176
369.65	571.429
369.87	368.182
370.08	66.667
370.30	193.478
370.51	188.462
370.73	103.896
370.95	872.727
371.16	130.000
371.38	370.000
371.60	812.500
371.81	261.538
372.03	3100.000
372.24	242.857
372.46	318.519
372.68	126.761
372.89	122.667
373.11	129.703
373.32	-73.077
373.54	1087.500
373.76	62.121
373.97	287.500
374.19	154.430
374.40	382.353
374.62	257.576
374.84	-515.385
375.05	120.000
375.27	647.059
375.48	142.857
375.70	270.968
375.92	91.379
376.13	-1933.333
376.35	66.667
376.56	116.327
376.78	94.000
376.99	375.758
377.21	186.047
377.43	58.065
377.64	162.500
377.86	172.500
378.07	80.952
378.29	126.190
378.51	100.000
378.72	182.051
378.94	76.068
379.15	62.105
379.37	48.214
379.58	69.231
379.80	101.639
380.01	100.000
380.23	260.000
380.45	206.667
380.66	-106.667
380.88	97.059
381.09	129.787
381.31	76.923
381.52	79.231
381.74	86.842
381.95	164.286
382.17	98.214
382.39	81.944
382.60	120.000
382.82	49.091
383.03	116.456
383.25	157.895
383.46	112.727
383.68	112.121
383.89	72.072
384.11	131.818
384.32	77.419
384.54	14.286
384.76	100.000
384.97	72.581
385.19	41.429
385.40	126.027
385.62	114.286
385.83	72.941
386.05	62.069
386.26	72.727
386.48	80.220
386.69	30.667
386.91	57.447
387.12	80.000
387.34	54.054
387.55	4.167
387.77	12.403
387.98	98.582
388.20	85.047
388.41	79.762
388.63	48.485
388.84	48.315
389.06	57.143
389.27	33.582
389.49	141.176
389.70	23.664
389.92	26.573
390.13	-5.263
390.35	62.595
390.56	71.094
390.78	83.007
390.99	77.320
391.21	2.941
391.42	81.203
391.64	53.846
391.85	1.887
392.07	15.385
392.28	22.785
392.50	50.000
392.71	51.181
392.93	25.000
393.14	56.589
393.36	110.656
393.57	34.259
393.79	50.000
394.00	44.348
394.22	43.103
394.43	22.632
394.65	26.667
394.86	33.140
395.08	-3.279
395.29	1.923
395.50	34.536
395.72	17.791
395.93	56.774
396.15	25.309
396.36	35.294
396.58	2.055
396.79	20.859
397.01	36.508
397.22	35.052
397.44	48.309
397.65	8.333
397.87	9.836
398.08	26.797
398.29	36.992
398.51	54.229
398.72	20.918
398.94	14.510
399.15	42.487
399.37	54.335
399.58	44.105
399.80	0.926
400.01	16.842
400.22	6.667
400.44	29.258
400.65	-4.167
400.87	29.870
401.08	1.515
401.30	21.759
401.51	22.167
401.72	36.709
401.94	26.667
402.15	16.096
402.37	3.889
402.58	15.714
402.80	21.825
403.01	18.957
403.22	13.359
403.44	20.775
403.65	29.841
403.87	15.354
404.08	15.932
404.30	-6.695
404.51	27.744
404.72	21.495
404.94	17.529
405.15	16.535
405.37	24.451
405.58	6.688
405.79	20.202
406.01	12.847
406.22	14.196
406.44	7.958
406.65	15.890
406.86	15.789
407.08	19.032
407.29	21.774
407.51	12.291
407.72	16.262
407.93	20.765
408.15	11.111
408.36	7.712
408.58	22.857
408.79	2.090
409.00	10.000
409.22	11.136
409.43	6.202
409.64	10.000
409.86	10.048
410.07	9.011
410.29	2.661
410.50	6.787
410.71	7.092
410.93	11.069
411.14	9.110
411.35	9.657
411.57	9.533
411.78	11.469
412.00	8.998
412.21	17.530
412.42	7.194
412.64	1.562
412.85	10.796
413.06	5.674
413.28	6.049
413.49	7.477
413.70	2.342
413.92	9.256
414.13	0.549
414.34	5.455
414.56	4.583
414.77	6.529
414.98	1.626
415.20	6.199
415.41	3.035
415.63	9.035
415.84	6.486
416.05	3.746
416.27	6.780
416.48	4.269
416.69	2.068
416.91	5.256
417.12	4.031
417.33	12.755
417.55	-0.401
417.76	5.507
417.97	-5.170
418.19	7.465
418.40	-0.833
418.61	8.508
418.83	9.494
419.04	11.358
419.25	-0.986
419.46	7.239
419.68	10.118
419.89	2.268
420.10	4.918
420.32	8.787
420.53	9.184
420.74	6.884
420.96	5.042
421.17	3.846
421.38	3.563
421.60	-2.506
421.81	4.592
422.02	6.808
422.23	0.654
422.45	6.484
422.66	6.048
422.87	7.282
423.09	4.316
423.30	4.782
423.51	4.440
423.73	1.283
423.94	5.109
424.15	5.504
424.36	4.582
424.58	6.963
424.79	4.729
425.00	7.512
425.22	3.046
425.43	-2.363
425.64	2.286
425.85	3.102
426.07	8.143
426.28	5.298
426.49	3.537
426.71	3.184
426.92	3.330
427.13	3.028
427.34	6.690
427.56	3.531
427.77	5.221
427.98	2.788
428.19	2.041
428.41	2.582
428.62	10.835
428.83	6.030
429.04	5.892
429.26	2.150
429.47	1.364
429.68	3.990
429.89	4.538
430.11	6.322
430.32	3.446
430.53	3.429
430.74	6.068
430.96	5.440
431.17	8.200
431.38	-0.321
431.59	3.587
431.81	6.855
432.02	1.294
432.23	3.892
432.44	5.311
432.66	9.903
432.87	11.391
433.08	16.303
433.29	19.514
433.51	27.745
433.72	34.861
433.93	42.454
434.14	53.429
434.35	58.665
434.57	65.698
434.78	71.833
434.99	72.497
435.20	84.631
435.42	79.935
435.63	83.654
435.84	84.825
436.05	83.333
436.26	83.756
436.48	83.147
436.69	84.443
436.90	86.115
437.11	85.627
437.32	91.921
437.54	90.930
437.75	87.677
437.96	90.815
438.17	87.858
438.38	87.056
438.60	88.037
438.81	89.953
439.02	87.412
439.23	88.034
439.44	88.902
439.66	89.714
439.87	93.285
440.08	85.730
440.29	86.803
440.50	89.067
440.72	87.534
440.93	89.007
441.14	86.331
441.35	91.567
441.56	88.522
441.77	90.593
441.99	86.378
442.20	87.500
442.41	90.838
442.62	85.137
442.83	88.485
443.04	90.875
443.26	94.903
443.47	92.865
443.68	91.480
443.89	90.148
444.10	87.377
444.31	93.875
444.53	92.661
444.74	88.638
444.95	89.306
445.16	91.269
445.37	91.925
445.58	92.835
445.80	93.594
446.01	97.904
446.22	87.561
446.43	91.887
446.64	88.014
446.85	88.993
447.06	96.300
447.28	92.282
447.49	93.136
447.70	94.595
447.91	92.334
448.12	90.153
448.33	90.731
448.54	93.330
448.76	91.831
448.97	89.662
449.18	92.240
449.39	92.763
449.60	91.850
449.81	92.187
450.02	93.562
450.23	92.745
450.45	88.382
450.66	89.329
450.87	91.644
451.08	85.913
451.29	94.918
451.50	92.617
451.71	93.448
451.92	91.094
452.13	93.184
452.35	89.739
452.56	95.438
452.77	92.335
452.98	95.784
453.19	93.670
453.40	93.041
453.61	93.975
453.82	91.872
454.03	90.096
454.25	91.582
454.46	88.381
454.67	91.878
454.88	90.773
455.09	92.126
455.30	90.713
455.51	89.730
455.72	92.140
455.93	86.817
456.14	95.966
456.35	93.830
456.56	92.448
456.78	87.569
456.99	92.282
457.20	92.516
457.41	87.349
457.62	86.057
457.83	91.627
458.04	92.656
458.25	89.180
458.46	87.021
458.67	93.102
458.88	90.751
459.09	90.398
459.30	87.106
459.51	94.323
459.73	92.386
459.94	89.508
460.15	91.776
460.36	90.587
460.57	90.367
460.78	90.900
460.99	85.397
461.20	88.840
461.41	90.152
461.62	88.630
461.83	90.095
462.04	88.762
462.25	90.118
462.46	87.798
462.67	87.432
462.88	85.774
463.09	91.323
463.30	87.623
463.51	89.827
463.72	89.124
463.93	86.880
464.15	87.935
464.36	86.422
464.57	89.408
464.78	88.086
464.99	82.291
465.20	83.248
465.41	80.545
465.62	77.437
465.83	70.430
466.04	68.185
466.25	62.504
466.46	55.786
466.67	50.147
466.88	43.062
467.09	37.220
467.30	31.680
467.51	26.125
467.72	19.331
467.93	13.485
468.14	12.531
468.35	10.276
468.56	8.244
468.77	6.749
468.98	4.940
469.19	4.564
469.40	3.288
469.61	2.719
469.82	2.385
470.03	2.340
470.24	2.373
470.45	2.637
470.66	2.127
470.87	2.349
471.08	2.468
471.29	1.035
471.50	3.209
471.71	0.985
471.92	2.090
472.13	2.700
472.34	1.803
472.55	2.295
472.76	2.630
472.97	1.951
473.18	2.256
473.39	2.538
473.60	1.997
473.81	0.928
474.01	2.799
474.22	0.147
474.43	1.732
474.64	1.945
474.85	1.058
475.06	1.526
475.27	0.978
475.48	1.066
475.69	1.210
475.90	1.317
476.11	1.041
476.32	2.187
476.53	1.542
476.74	1.823
476.95	2.595
477.16	2.658
477.37	1.019
477.58	2.296
477.79	1.051
478.00	0.831
478.21	2.154
478.41	0.990
478.62	0.970
478.83	2.224
479.04	1.077
479.25	1.519
479.46	1.335
479.67	1.128
479.88	0.792
480.09	2.266
480.30	0.761
480.51	2.046
480.72	1.916
480.93	1.301
481.14	1.421
481.34	0.595
481.55	1.662
481.76	0.498
481.97	1.795
482.18	1.414
482.39	0.776
482.60	1.049
482.81	1.081
483.02	1.628
483.23	1.420
483.44	1.355
483.65	1.196
483.85	1.798
484.06	1.000
484.27	0.942
484.48	1.106
484.69	1.400
484.90	1.244
485.11	0.674
485.32	0.862
485.53	1.738
485.73	0.748
485.94	1.221
486.15	1.401
486.36	0.909
486.57	1.464
486.78	1.287
486.99	1.665
487.20	1.325
487.41	1.853
487.61	1.443
487.82	1.398
488.03	1.369
488.24	0.936
488.45	0.815
488.66	1.062
488.87	1.096
489.08	1.337
489.28	1.753
489.49	0.604
489.70	0.509
489.91	1.022
490.12	0.897
490.33	1.465
490.54	1.399
490.74	1.332
490.95	0.966
491.16	1.279
491.37	0.545
491.58	0.284
491.79	1.013
492.00	1.437
492.20	1.407
492.41	1.346
492.62	1.476
492.83	0.385
493.04	1.225
493.25	1.448
493.45	1.307
493.66	0.898
493.87	1.659
494.08	0.746
494.29	1.309
494.50	0.560
494.70	1.796
494.91	1.445
495.12	1.037
495.33	1.523
495.54	0.996
495.75	1.343
495.95	0.909
496.16	1.310
496.37	0.969
496.58	1.421
496.79	0.420
496.99	1.460
497.20	0.972
497.41	1.278
497.62	0.740
497.83	1.292
498.04	0.992
498.24	1.544
498.45	1.131
498.66	0.625
498.87	1.048
499.08	1.767
499.28	0.840
499.49	0.751
499.70	0.584
499.91	0.736
500.12	1.051
500.32	1.326
500.53	0.521
500.74	0.759
500.95	1.295
501.15	1.183
501.36	0.971
501.57	0.664
501.78	1.616
501.99	0.727
502.19	0.766
502.40	1.499
502.61	1.043
502.82	1.335
503.02	0.980
503.23	1.030
503.44	1.612
503.65	1.148
503.86	1.807
504.06	0.959
504.27	1.140
504.48	0.943
504.69	1.283
504.89	0.837
505.10	0.866
505.31	0.529
505.52	1.498
505.72	1.368
505.93	1.454
506.14	1.325
506.35	0.998
506.55	1.526
506.76	1.203
506.97	1.725
507.18	1.591
507.38	2.046
507.59	1.410
507.80	1.197
508.01	1.581
508.21	1.606
508.42	1.663
508.63	1.388
508.84	1.434
509.04	1.288
509.25	1.574
509.46	1.349
509.67	1.884
509.87	1.877
510.08	2.063
510.29	1.576
510.49	1.740
510.70	2.152
510.91	2.045
511.12	3.070
511.32	3.262
511.53	5.721
511.74	7.956
511.94	11.027
512.15	15.111
512.36	20.665
512.57	25.657
512.77	33.207
512.98	38.677
513.19	45.361
513.39	51.080
513.60	57.444
513.81	63.000
514.01	67.467
514.22	72.180
514.43	75.545
514.64	78.768
514.84	81.983
515.05	82.847
515.26	85.271
515.46	86.066
515.67	90.013
515.88	88.473
516.08	89.499
516.29	88.196
516.50	87.854
516.70	87.239
516.91	87.566
517.12	88.371
517.32	88.930
517.53	89.593
517.74	90.485
517.95	90.275
518.15	91.290
518.36	91.139
518.57	91.120
518.77	89.165
518.98	88.810
519.19	87.978
519.39	89.654
519.60	89.386
519.80	90.758
520.01	88.883
520.22	89.973
520.42	88.927
520.63	89.071
520.84	88.404
521.04	90.081
521.25	88.779
521.46	90.116
521.66	89.669
521.87	90.762
522.08	90.917
522.28	92.334
522.49	92.074
522.70	91.975
522.90	92.645
523.11	93.967
523.31	93.073
523.52	92.349
523.73	94.499
523.93	94.232
524.14	95.696
524.35	93.028
524.55	94.210
524.76	93.698
524.97	94.257
525.17	91.453
525.38	91.855
525.58	93.410
525.79	92.513
526.00	91.243
526.20	92.140
526.41	91.279
526.61	91.247
526.82	91.755
527.03	90.832
527.23	92.812
527.44	92.192
527.64	91.212
527.85	93.681
528.06	93.999
528.26	92.891
528.47	92.511
528.68	93.129
528.88	94.745
529.09	93.515
529.29	93.008
529.50	92.708
529.70	93.003
529.91	92.645
530.12	91.794
530.32	91.240
530.53	93.578
530.73	93.932
530.94	93.652
531.15	94.244
531.35	93.934
531.56	92.986
531.76	94.866
531.97	94.358
532.17	94.628
532.38	92.854
532.59	94.033
532.79	94.264
533.00	92.325
533.20	94.051
533.41	92.992
533.61	93.687
533.82	94.207
534.03	93.760
534.23	93.019
534.44	93.841
534.64	95.238
534.85	94.742
535.05	93.875
535.26	94.322
535.46	93.985
535.67	94.759
535.88	93.672
536.08	92.713
536.29	91.006
536.49	92.666
536.70	92.141
536.90	93.837
537.11	94.172
537.31	91.185
537.52	91.815
537.72	89.841
537.93	88.998
538.13	87.017
538.34	84.302
538.55	79.496
538.75	75.371
538.96	69.935
539.16	64.288
539.37	58.305
539.57	53.236
539.78	45.916
539.98	40.871
540.19	34.789
540.39	30.129
540.60	25.390
540.80	21.441
541.01	17.655
541.21	14.681
541.42	12.117
541.62	9.654
541.83	8.026
542.03	5.822
542.24	4.609
542.44	3.861
542.65	2.691
542.85	1.943
543.06	1.817
543.26	1.339
543.47	0.884
543.67	0.753
543.88	1.312
544.08	0.845
544.29	1.785
544.49	1.145
544.70	0.832
544.90	0.780
545.11	0.780
545.31	1.076
545.52	0.620
545.72	1.052
545.93	0.811
546.13	0.936
546.34	0.814
546.54	0.612
546.75	0.931
546.95	0.734
547.15	0.435
547.36	0.503
547.56	0.776
547.77	1.358
547.97	0.635
548.18	0.645
548.38	0.999
548.59	0.432
548.79	0.633
549.00	0.768
549.20	0.732
549.41	0.869
549.61	0.979
549.81	0.534
550.02	0.952
550.22	0.539
550.43	1.052
550.63	0.818
550.84	0.831
551.04	0.492
551.25	0.789
551.45	0.515
551.65	0.847
551.86	0.393
552.06	0.918
552.27	1.022
552.47	0.564
552.68	0.814
552.88	0.228
553.08	0.562
553.29	0.847
553.49	0.612
553.70	0.753
553.90	0.571
554.11	0.717
554.31	0.701
554.51	0.732
554.72	0.474
554.92	0.722
555.13	0.737
555.33	0.605
555.53	0.412
555.74	0.424
555.94	0.945
556.15	0.984
556.35	0.413
556.56	0.921
556.76	0.592
556.96	0.425
557.17	0.350
557.37	0.813
557.58	0.648
557.78	0.513
557.98	0.432
558.19	0.627
558.39	0.353
558.59	0.572
558.80	0.559
559.00	0.483
559.21	0.663
559.41	0.417
559.61	0.553
559.82	0.444
560.02	0.652
560.23	0.610
560.43	0.811
560.63	0.408
560.84	0.800
561.04	0.480
561.24	0.599
561.45	0.817
561.65	0.690
561.85	0.465
562.06	0.613
562.26	0.399
562.47	0.738
562.67	0.318
562.87	0.431
563.08	0.691
563.28	0.716
563.48	0.695
563.69	0.206
563.89	0.785
564.09	0.604
564.30	0.470
564.50	0.704
564.70	0.637
564.91	0.456
565.11	0.687
565.31	0.552
565.52	0.674
565.72	0.675
565.92	0.718
566.13	0.468
566.33	0.830
566.53	0.760
566.74	0.766
566.94	0.577
567.14	0.542
567.35	0.488
567.55	0.577
567.75	0.760
567.96	0.808
568.16	0.721
568.36	0.788
568.57	0.544
568.77	0.975
568.97	0.910
569.18	0.862
569.38	0.737
569.58	0.652
569.79	0.642
569.99	0.704
570.19	0.914
570.39	0.749
570.60	0.810
570.80	0.933
571.00	0.902
571.21	0.704
571.41	0.633
571.61	0.562
571.82	0.934
572.02	0.828
572.22	0.660
572.42	0.898
572.63	0.513
572.83	0.876
573.03	0.770
573.24	0.920
573.44	0.684
573.64	0.849
573.84	0.616
574.05	1.012
574.25	0.811
574.45	0.867
574.66	0.799
574.86	0.928
575.06	1.253
575.26	0.926
575.47	1.095
575.67	1.086
575.87	1.038
576.07	1.628
576.28	1.011
576.48	1.298
576.68	1.532
576.88	1.845
577.09	2.167
577.29	2.694
577.49	3.596
577.69	4.604
577.90	6.025
578.10	7.769
578.30	10.892
578.50	14.861
578.71	18.594
578.91	22.986
579.11	28.059
579.31	33.671
579.52	39.830
579.72	44.424
579.92	50.342
580.12	54.747
580.33	59.138
580.53	64.438
580.73	68.098
580.93	72.118
581.13	75.130
581.34	79.261
581.54	80.355
581.74	82.809
581.94	85.913
582.15	87.563
582.35	88.327
582.55	89.007
582.75	89.813
582.95	91.643
583.16	90.640
583.36	93.167
583.56	92.971
583.76	94.234
583.96	91.972
584.17	92.973
584.37	92.783
584.57	92.875
584.77	92.055
584.97	92.507
585.18	92.243
585.38	92.075
585.58	92.117
585.78	92.742
585.98	92.639
586.19	92.860
586.39	91.681
586.59	92.072
586.79	92.598
586.99	91.085
587.20	91.892
587.40	91.957
587.60	93.675
587.80	92.409
588.00	91.399
588.20	93.819
588.41	93.237
588.61	91.602
588.81	92.472
589.01	91.791
589.21	92.695
589.41	92.161
589.62	92.785
589.82	92.777
590.02	93.389
590.22	93.852
590.42	92.617
590.62	92.370
590.83	92.491
591.03	92.646
591.23	93.823
591.43	94.509
591.63	92.873
591.83	93.452
592.03	94.149
592.24	94.594
592.44	93.485
592.64	92.147
592.84	92.674
593.04	93.470
593.24	92.243
593.44	92.852
593.65	92.307
593.85	93.228
594.05	92.183
594.25	93.456
594.45	92.978
594.65	94.227
594.85	94.068
595.06	94.066
595.26	93.326
595.46	93.559
595.66	93.533
595.86	91.527
596.06	92.330
596.26	91.636
596.46	92.810
596.66	92.045
596.87	91.641
597.07	91.720
597.27	91.729
597.47	92.992
597.67	92.440
597.87	91.673
598.07	92.279
598.27	91.489
598.47	92.081
598.67	92.065
598.88	91.412
599.08	91.312
599.28	90.882
599.48	89.974
599.68	90.559
599.88	90.808
600.08	90.817
600.28	91.905
600.48	90.629
600.68	91.418
600.88	92.025
601.09	92.934
601.29	92.022
601.49	91.555
601.69	91.611
601.89	91.399
602.09	91.493
602.29	90.773
602.49	90.903
602.69	91.682
602.89	92.504
603.09	90.986
603.29	92.617
603.49	91.546
603.69	91.502
603.90	91.940
604.10	91.271
604.30	91.635
604.50	91.723
604.70	91.912
604.90	91.724
605.10	91.873
605.30	92.766
605.50	92.430
605.70	91.814
605.90	92.822
606.10	90.919
606.30	91.549
606.50	91.828
606.70	91.743
606.90	92.539
607.10	92.455
607.30	90.798
607.50	92.089
607.70	91.693
607.90	91.789
608.10	92.052
608.30	92.233
608.50	90.198
608.70	90.733
608.90	90.458
609.11	90.709
609.31	90.761
609.51	91.403
609.71	92.665
609.91	90.967
610.11	91.072
610.31	90.740
610.51	92.099
610.71	91.321
610.91	91.451
611.11	92.152
611.31	91.002
611.51	91.581
611.71	90.945
611.91	90.958
612.11	92.113
612.31	91.230
612.51	90.433
612.71	89.539
612.91	90.949
613.11	89.505
613.31	89.105
613.51	90.143
613.71	90.060
613.91	90.001
614.11	90.617
614.31	90.338
614.50	90.940
614.70	91.527
614.90	91.368
615.10	92.435
615.30	91.566
615.50	91.772
615.70	92.198
615.90	91.743
616.10	90.938
616.30	91.941
616.50	91.797
616.70	92.273
616.90	93.069
617.10	91.716
617.30	91.503
617.50	90.804
617.70	90.134
617.90	91.128
618.10	90.945
618.30	91.374
618.50	91.790
618.70	92.510
618.90	93.022
619.10	93.031
619.30	92.675
619.49	93.465
619.69	92.263
619.89	92.318
620.09	93.066
620.29	92.510
620.49	91.942
620.69	92.280
620.89	92.490
621.09	92.517
621.29	92.419
621.49	91.709
621.69	91.755
621.89	90.531
622.09	90.475
622.29	91.229
622.48	91.287
622.68	91.070
622.88	91.441
623.08	90.538
623.28	90.643
623.48	90.450
623.68	90.825
623.88	91.716
624.08	91.172
624.28	91.510
624.48	91.661
624.67	92.418
624.87	92.332
625.07	92.185
625.27	92.970
625.47	92.296
625.67	92.504
625.87	91.631
626.07	92.182
626.27	92.489
626.47	92.702
626.66	91.618
626.86	92.912
627.06	91.267
627.26	91.910
627.46	91.230
627.66	92.553
627.86	92.843
628.06	91.502
628.25	92.565
628.45	92.080
628.65	91.389
628.85	91.873
629.05	90.899
629.25	92.042
629.45	91.476
629.65	92.143
629.84	91.576
630.04	92.179
630.24	90.894
630.44	91.645
630.64	92.276
630.84	91.924
631.04	92.972
631.23	93.768
631.43	92.580
631.63	92.911
631.83	92.442
632.03	92.524
632.23	91.602
632.42	91.071
632.62	91.343
632.82	92.347
633.02	93.612
633.22	93.821
633.42	93.349
633.62	92.266
633.81	92.834
634.01	92.577
634.21	91.556
634.41	91.180
634.61	91.017
634.80	91.433
635.00	90.661
635.20	88.458
635.40	88.687
635.60	87.350
635.80	85.059
635.99	83.612
636.19	80.365
636.39	79.387
636.59	75.708
636.79	72.272
636.98	68.388
637.18	64.745
637.38	59.632
637.58	55.129
637.78	49.749
637.97	45.754
638.17	41.219
638.37	36.538
638.57	32.928
638.77	30.033
638.96	25.576
639.16	22.589
639.36	19.696
639.56	17.043
639.76	14.145
639.95	12.042
640.15	10.227
640.35	8.564
640.55	6.873
640.75	5.734
640.94	4.771
641.14	3.526
641.34	2.975
641.54	2.260
641.73	1.896
641.93	1.665
642.13	1.202
642.33	0.879
642.53	0.992
642.72	0.578
642.92	1.082
643.12	0.529
643.32	0.656
643.51	0.723
643.71	0.499
643.91	0.508
644.11	0.517
644.30	0.669
644.50	0.712
644.70	0.480
644.90	0.498
645.09	0.549
645.29	0.383
645.49	0.347
645.69	0.408
645.88	0.416
646.08	0.559
646.28	0.717
646.48	0.322
646.67	0.560
646.87	0.402
647.07	0.520
647.26	0.466
647.46	0.621
647.66	0.442
647.86	0.220
648.05	0.674
648.25	0.378
648.45	0.369
648.65	0.363
648.84	0.463
649.04	0.350
649.24	0.236
649.43	0.506
649.63	0.496
649.83	0.573
650.03	0.453
650.22	0.335
650.42	0.222
650.62	0.537
650.81	0.265
651.01	0.376
651.21	0.442
651.40	0.422
651.60	0.240
651.80	0.301
652.00	0.236
652.19	0.466
652.39	0.331
652.59	0.328
652.78	0.486
652.98	0.233
653.18	0.258
653.37	0.394
653.57	0.429
653.77	0.454
653.96	0.039
654.16	0.425
654.36	0.342
654.55	0.186
654.75	0.443
654.95	0.227
655.14	0.267
655.34	0.099
655.54	0.184
655.73	0.256
655.93	0.215
656.13	0.107
656.32	0.189
656.52	0.193
656.72	0.456
656.91	0.294
657.11	0.254
657.31	0.193
657.50	-0.016
657.70	-0.070
657.90	0.133
658.09	0.110
658.29	0.310
658.49	0.181
658.68	0.109
658.88	0.379
659.07	0.286
659.27	0.315
659.47	0.312
659.66	0.282
659.86	0.175
660.06	0.137
660.25	0.383
660.45	0.160
660.64	0.206
660.84	0.238
661.04	0.113
661.23	0.371
661.43	0.281
661.63	0.290
661.82	0.217
662.02	0.051
662.21	0.280
662.41	0.315
662.61	0.218
662.80	0.414
663.00	0.374
663.19	0.241
663.39	0.160
663.59	0.238
663.78	0.164
663.98	0.276
664.17	0.259
664.37	0.237
664.57	0.352
664.76	0.050
664.96	0.271
665.15	0.357
665.35	0.117
665.55	0.016
665.74	0.224
665.94	0.273
666.13	0.085
666.33	0.227
666.53	0.233
666.72	0.102
666.92	0.211
667.11	0.248
667.31	-0.024
667.50	0.159
667.70	0.205
667.90	0.282
668.09	0.113
668.29	-0.074
668.48	0.265
668.68	0.165
668.87	0.152
669.07	0.239
669.26	0.210
669.46	0.187
669.66	0.249
669.85	0.122
670.05	0.082
670.24	0.138
670.44	0.341
670.63	0.230
670.83	0.179
671.02	0.229
671.22	0.207
671.42	0.063
671.61	0.035
671.81	0.254
672.00	0.306
672.20	0.303
672.39	0.159
672.59	0.235
672.78	0.317
672.98	0.311
673.17	0.071
673.37	0.107
673.56	0.274
673.76	0.066
673.95	0.262
674.15	0.098
674.34	0.153
674.54	0.148
674.73	0.159
674.93	0.230
675.13	0.136
675.32	0.309
675.52	-0.019
675.71	-0.122
675.91	0.059
676.10	-0.102
676.30	0.082
676.49	0.283
676.69	0.024
676.88	0.269
677.08	0.067
677.27	0.150
677.47	0.228
677.66	0.020
677.86	0.066
678.05	0.044
678.24	0.181
678.44	0.086
678.63	0.189
678.83	0.196
679.02	0.137
679.22	0.039
679.41	0.008
679.61	-0.051
679.80	0.165
680.00	-0.055
680.19	0.167
680.39	0.102
680.58	0.020
680.78	0.305
680.97	0.043
681.17	0.055
681.36	0.091
681.56	0.145
681.75	0.051
681.94	0.283
682.14	0.118
682.33	-0.110
682.53	0.140
682.72	0.224
682.92	0.099
683.11	0.027
683.31	0.095
683.50	0.008
683.69	0.051
683.89	-0.012
684.08	0.126
684.28	0.319
684.47	0.170
684.67	0.008
684.86	-0.016
685.06	0.090
685.25	-0.087
685.44	-0.067
685.64	0.110
685.83	0.173
686.03	0.016
686.22	-0.012
686.42	0.199
686.61	0.149
686.80	-0.147
687.00	0.174
687.19	0.107
687.39	0.135
687.58	0.036
687.77	0.008
687.97	0.020
688.16	0.048
688.36	0.084
688.55	0.092
688.74	0.083
688.94	0.167
689.13	-0.004
689.33	0.132
689.52	-0.080
689.71	0.020
689.91	-0.012
690.10	0.128
690.30	0.008
690.49	0.084
690.68	0.080
690.88	0.259
691.07	-0.190
691.27	0.167
691.46	0.249
691.65	-0.032
691.85	0.174
692.04	0.239
692.23	0.076
692.43	-0.060
692.62	0.164
692.82	0.261
693.01	0.227
693.20	0.165
693.40	0.123
693.59	0.180
693.78	-0.156
693.98	-0.056
694.17	0.080
694.36	0.060
694.56	0.008
694.75	0.060
694.94	-0.076
695.14	0.401
695.33	0.238
695.53	0.096
695.72	0.121
695.91	0.192
696.11	-0.104
696.30	0.169
696.49	-0.004
696.69	-0.033
696.88	0.126
697.07	-0.045
697.27	0.124
697.46	0.097
697.65	0.008
697.85	0.052
698.04	-0.129
698.23	0.177
698.43	0.130
698.62	0.088
698.81	0.085
699.01	0.127
699.20	0.057
699.39	0.040
699.58	0.130
699.78	-0.037
699.97	0.250
700.16	0.094
700.36	0.291
700.55	0.252
700.74	0.251
700.94	-0.033
701.13	0.061
701.32	0.253
701.52	-0.203
701.71	0.045
701.90	0.408
702.09	-0.131
702.29	0.160
702.48	0.098
702.67	0.098
702.87	0.045
703.06	0.115
703.25	0.316
703.44	0.148
703.64	0.133
703.83	0.223
704.02	0.209
704.22	0.004
704.41	-0.008
704.60	0.110
704.79	-0.025
704.99	0.021
705.18	-0.073
705.37	0.045
705.56	-0.128
705.76	0.235
705.95	0.186
706.14	0.004
706.33	-0.046
706.53	0.195
706.72	0.147
706.91	-0.087
707.11	0.062
707.30	0.091
707.49	0.490
707.68	0.033
707.88	-0.117
708.07	0.062
708.26	0.025
708.45	0.156
708.64	0.075
708.84	0.096
709.03	0.199
709.22	-0.033
709.41	-0.072
709.61	0.038
709.80	0.332
709.99	0.067
710.18	-0.101
710.38	0.161
710.57	-0.038
710.76	0.106
710.95	0.191
711.14	0.268
711.34	0.013
711.53	0.076
711.72	0.004
711.91	0.389
712.11	0.119
712.30	-0.059
712.49	-0.047
712.68	0.117
712.87	0.017
713.07	0.237
713.26	0.038
713.45	0.153
713.64	0.301
713.83	-0.055
714.03	0.157
714.22	0.140
714.41	0.337
714.60	0.004
714.79	0.085
714.99	0.186
715.18	-0.085
715.37	-0.119
715.56	0.149
715.75	-0.030
715.94	0.237
716.14	0.064
716.33	0.052
716.52	-0.233
716.71	0.081
716.90	0.153
717.10	0.095
717.29	0.216
717.48	0.288
717.67	0.121
717.86	-0.034
718.05	0.103
718.24	0.030
718.44	0.013
718.63	0.311
718.82	0.138
719.01	-0.009
719.20	0.185
719.39	-0.104
719.59	0.113
719.78	0.174
719.97	0.163
720.16	0.123
720.35	-0.114
720.54	0.052
720.73	0.083
720.93	0.352
721.12	0.199
721.31	-0.004
721.50	0.103
721.69	0.113
721.88	0.180
722.07	0.223
722.27	-0.026
722.46	0.101
722.65	0.106
722.84	0.018
723.03	0.027
723.22	-0.106
723.41	-0.066
723.60	0.130
723.79	0.018
723.99	0.110
724.18	0.210
724.37	0.199
724.56	0.062
724.75	-0.084
724.94	0.339
725.13	0.057
725.32	0.320
725.51	-0.022
725.71	-0.044
725.90	0.018
726.09	-0.112
726.28	-0.094
726.47	0.371
726.66	0.169
726.85	-0.146
727.04	-0.169
727.23	-0.187
727.42	0.009
727.61	-0.053
727.81	0.027
728.00	-0.086
728.19	0.031
728.38	-0.013
728.57	0.004
728.76	0.067
728.95	0.261
729.14	0.279
729.33	0.345
729.52	0.166
729.71	0.210
729.90	-0.193
730.09	0.188
730.28	-0.135
730.48	0.158
730.67	0.224
730.86	0.261
731.05	0.197
731.24	0.172
731.43	-0.045
731.62	0.141
731.81	-0.118
732.00	-0.004
732.19	0.045
732.38	0.141
732.57	0.302
732.76	-0.050
732.95	0.241
733.14	0.041
733.33	0.095
733.52	0.157
733.71	0.268
733.90	0.000
734.09	-0.247
734.28	0.027
734.47	-0.009
734.66	-0.068
734.85	0.032
735.04	-0.096
735.23	-0.050
735.42	0.028
735.61	0.137
735.81	0.218
736.00	0.152
736.19	0.202
736.38	0.073
736.57	0.060
736.76	0.009
736.95	-0.205
737.14	0.105
737.33	0.275
737.52	0.139
737.71	0.070
737.90	0.207
738.09	0.028
738.28	0.042
738.47	-0.079
738.66	-0.102
738.85	-0.130
739.04	0.283
739.22	0.369
739.41	-0.042
739.60	0.028
739.79	0.116
739.98	0.172
740.17	0.238
740.36	0.174
740.55	-0.117
740.74	-0.227
740.93	-0.112
741.12	0.104
741.31	-0.052
741.50	0.160
741.69	-0.202
741.88	-0.071
742.07	-0.240
742.26	0.112
742.45	0.331
742.64	0.179
742.83	-0.061
743.02	0.084
743.21	0.147
743.40	0.219
743.59	-0.062
743.78	-0.014
743.97	0.298
744.16	0.066
744.34	0.076
744.53	-0.047
744.72	0.238
744.91	-0.052
745.10	-0.052
745.29	0.180
745.48	-0.005
745.67	0.228
745.86	0.261
746.05	0.153
746.24	0.000
746.43	0.087
746.62	0.261
746.81	-0.043
747.00	0.377
747.18	0.285
747.37	0.240
747.56	-0.246
747.75	0.019
747.94	-0.034
748.13	0.116
748.32	0.068
748.51	-0.029
748.70	0.179
748.89	0.010
749.08	0.096
749.26	0.068
749.45	0.120
749.64	0.087
749.83	0.164
750.02	0.266
750.21	0.246
750.40	0.222
750.59	0.209
750.78	0.233
750.96	0.064
751.15	-0.024
751.34	0.250
751.53	0.034
751.72	0.218
751.91	-0.184
752.10	-0.231
752.29	0.200
752.47	0.299
752.66	0.068
752.85	0.180
753.04	0.158
753.23	0.074
753.42	-0.005
753.61	0.213
753.80	0.210
753.98	0.228
754.17	0.029
754.36	0.314
754.55	-0.216
754.74	-0.093
754.93	-0.030
755.12	-0.025
755.30	0.034
755.49	0.276
755.68	0.296
755.87	0.015
756.06	0.349
756.25	0.015
756.43	0.035
756.62	-0.040
756.81	0.387
757.00	0.035
757.19	0.065
757.38	0.196
757.56	0.240
757.75	0.119
757.94	-0.130
758.13	0.115
758.32	-0.045
758.51	-0.105
758.69	-0.040
758.88	-0.040
759.07	0.094
759.26	0.145
759.45	-0.095
759.63	0.110
759.82	0.161
760.01	0.096
760.20	0.140
760.39	-0.103
760.57	-0.132
760.76	0.100
760.95	-0.010
761.14	-0.066
761.33	0.161
761.51	0.178
761.70	0.031
761.89	-0.046
762.08	-0.116
762.27	0.131
762.45	-0.061
762.64	0.345
762.83	0.320
763.02	-0.128
763.21	-0.067
763.39	0.160
763.58	-0.010
763.77	0.020
763.96	-0.264
764.14	0.061
764.33	0.093
764.52	0.119
764.71	0.026
764.89	0.189
765.08	0.072
765.27	0.315
765.46	-0.026
765.65	0.000
765.83	0.052
766.02	-0.188
766.21	0.201
766.40	-0.109
766.58	0.214
766.77	-0.116
766.96	0.190
767.15	-0.094
767.33	-0.073
767.52	0.158
767.71	0.126
767.90	-0.100
768.08	0.198
768.27	0.073
768.46	0.115
768.64	0.392
768.83	0.084
769.02	-0.037
769.21	-0.100
769.39	0.026
769.58	0.280
769.77	0.355
769.96	0.058
770.14	0.153
770.33	-0.064
770.52	0.218
770.70	0.154
770.89	0.206
771.08	0.016
771.27	0.241
771.45	0.000
771.64	0.101
771.83	0.331
772.01	-0.242
772.20	0.096
772.39	0.413
772.57	-0.065
772.76	-0.139
772.95	0.135
773.14	-0.284
773.32	-0.043
773.51	0.054
773.70	0.140
773.88	0.201
774.07	0.038
774.26	0.173
774.44	0.196
774.63	0.022
774.82	0.050
775.00	0.049
775.19	0.044
775.38	0.137
775.56	-0.093
775.75	0.343
775.94	0.121
776.12	-0.055
776.31	0.219
776.50	0.188
776.68	0.061
776.87	0.171
777.06	-0.077
777.24	0.089
777.43	0.128
777.62	0.171
777.80	0.258
777.99	0.201
778.18	0.201
778.36	-0.107
778.55	0.172
778.74	0.375
778.92	0.163
779.11	0.022
779.29	0.248
779.48	0.146
779.67	0.023
779.85	0.045
780.04	0.050
780.23	-0.046
780.41	0.271
780.60	-0.159
780.79	-0.074
780.97	0.205
781.16	0.108
781.34	0.322
781.53	0.051
781.72	0.203
781.90	0.029
782.09	-0.034
782.28	0.249
782.46	0.242
782.65	0.148
782.83	0.000
783.02	0.128
783.21	-0.011
783.39	0.345
783.58	0.503
783.76	-0.223
783.95	0.117
784.14	-0.065
784.32	0.170
784.51	0.416
784.69	0.024
784.88	0.135
785.06	0.029
785.25	-0.194
785.44	0.509
785.62	0.377
785.81	0.176
785.99	0.065
786.18	-0.041
786.37	0.507
786.55	-0.102
786.74	0.365
786.92	0.336
787.11	-0.108
787.29	-0.065
787.48	0.369
787.67	0.012
787.85	-0.054
788.04	-0.060
788.22	0.089
788.41	0.465
788.59	0.024
788.78	0.167
788.96	0.078
789.15	0.269
789.34	0.273
789.52	0.018
789.71	-0.103
789.89	0.427
790.08	-0.133
790.26	-0.166
790.45	-0.097
790.63	0.178
790.82	0.182
791.00	0.416
791.19	0.436
791.38	0.400
791.56	0.177
791.75	-0.031
791.93	0.031
792.12	0.093
792.30	0.298
792.49	0.031
792.67	0.223
792.86	-0.104
793.04	0.541
793.23	0.499
793.41	0.162
793.60	0.286
793.78	0.178
793.97	-0.044
794.15	0.191
794.34	0.181
794.52	-0.006
794.71	0.217
794.89	0.511
795.08	0.463
795.26	0.038
795.45	0.162
795.63	0.234
795.82	0.250
796.00	-0.232
796.19	-0.226
796.37	0.435
796.56	0.182
796.74	0.199
796.93	0.293
797.11	0.459
797.30	0.087
797.48	0.330
797.67	0.223
797.85	0.412
798.04	0.275
798.22	0.118
798.41	0.031
798.59	0.088
798.77	0.118
798.96	-0.132
799.14	0.418
799.33	0.420
799.51	0.086
799.70	0.043
799.88	0.399
800.07	0.304
800.25	0.207
800.44	0.422
800.62	0.019
800.80	0.050
800.99	0.277
801.17	0.142
801.36	0.038
801.54	-0.144
801.73	-0.032
801.91	-0.101
802.10	0.448
802.28	0.064
802.46	0.290
802.65	0.044
802.83	0.267
803.02	0.368
803.20	0.128
803.39	0.217
803.57	0.301
803.75	0.423
803.94	0.197
804.12	0.229
804.31	0.334
804.49	0.307
804.67	-0.039
804.86	0.421
805.04	0.295
805.23	0.212
805.41	0.309
805.59	0.123
805.78	0.419
805.96	-0.052
806.15	0.580
806.33	-0.058
806.51	0.104
806.70	0.026
806.88	0.297
807.07	0.291
807.25	0.301
807.43	-0.053
807.62	0.211
807.80	0.478
807.99	0.229
808.17	-0.139
808.35	0.323
808.54	0.497
808.72	0.093
808.90	0.302
809.09	0.152
809.27	0.289
809.46	0.466
809.64	0.252
809.82	0.471
810.01	-0.161
810.19	0.436
810.37	0.290
810.56	0.254
810.74	0.285
810.92	0.277
811.11	0.649
811.29	0.094
811.48	0.193
811.66	-0.027
811.84	0.555
812.03	0.279
812.21	0.233
812.39	0.720
812.58	-0.395
812.76	0.336
812.94	0.069
813.13	-0.014
813.31	0.440
813.49	0.401
813.68	0.436
813.86	0.513
814.04	0.354
814.23	0.536
814.41	0.091
814.59	0.246
814.78	0.276
814.96	0.423
815.14	0.442
815.33	-0.134
815.51	0.269
815.69	0.042
815.87	-0.509
816.06	0.558
816.24	-0.014
816.42	-0.172
816.61	-0.014
816.79	0.649
816.97	0.351
817.16	0.607
817.34	0.029
817.52	0.429
817.70	0.245
817.89	0.116
818.07	0.471
818.25	0.653
818.44	0.320
818.62	0.511
818.80	0.147
818.98	0.442
819.17	0.612
819.35	0.351
819.53	0.281
819.72	0.384
819.90	0.314
820.08	0.424
820.26	0.351
820.45	0.171
820.63	0.360
820.81	-0.105
820.99	0.246
821.18	0.089
821.36	0.595
821.54	0.275
821.73	0.389
821.91	0.083
822.09	-0.061
822.27	0.502
822.46	0.458
822.64	0.466
822.82	0.552
823.00	0.455
823.19	0.481
823.37	0.595
823.55	-0.210
823.73	0.278
823.91	0.093
824.10	0.162
824.28	0.140
824.46	0.200
824.64	0.225
824.83	0.487
825.01	0.451
825.19	0.396
825.37	0.031
825.56	0.581
825.74	0.111
825.92	0.406
826.10	0.056
826.28	0.368
826.47	0.495
826.65	0.288
826.83	0.699
827.01	0.486
827.19	0.016
827.38	0.651
827.56	0.517
827.74	0.567
827.92	0.449
828.10	0.947
828.29	0.920
828.47	0.171
828.65	0.626
828.83	0.241
829.01	0.147
829.20	-0.317
829.38	0.638
829.56	0.701
829.74	0.058
829.92	0.536
830.10	0.396
830.29	0.675
830.47	1.123
830.65	0.142
830.83	0.578
831.01	0.625
831.20	0.713
831.38	0.248
831.56	0.887
831.74	0.411
831.92	0.575
832.10	0.410
832.29	0.509
832.47	0.555
832.65	0.034
832.83	0.119
833.01	0.239
833.19	0.376
833.37	0.085
833.56	0.765
833.74	0.510
833.92	-0.008
834.10	0.545
834.28	-0.112
834.46	0.601
834.64	0.698
834.83	0.611
835.01	0.473
835.19	0.340
835.37	0.526
835.55	-0.210
835.73	0.368
835.91	0.500
836.09	0.360
836.28	0.259
836.46	0.069
836.64	1.004
836.82	0.299
837.00	0.360
837.18	0.419
837.36	0.235
837.54	0.097
837.72	0.453
837.91	0.430
838.09	0.465
838.27	0.664
838.45	0.675
838.63	0.219
838.81	0.577
838.99	-0.061
839.17	0.320
839.35	0.335
839.53	0.196
839.72	0.242
839.90	0.213
840.08	0.813
840.26	0.711
840.44	1.291
840.62	-0.127
840.80	0.466
840.98	0.347
841.16	0.381
841.34	0.619
841.52	0.339
841.70	0.280
841.89	0.732
842.07	0.794
842.25	0.982
842.43	0.136
842.61	1.109
842.79	0.442
842.97	0.240
843.15	0.912
843.33	0.284
843.51	-0.082
843.69	0.611
843.87	0.537
844.05	0.504
844.23	0.271
844.41	0.328
844.59	0.491
844.77	0.065
844.95	1.063
845.13	0.130
845.31	0.984
845.50	0.333
845.68	0.104
845.86	0.142
846.04	0.937
846.22	1.298
846.40	0.048
846.58	0.603
846.76	0.907
846.94	1.189
847.12	1.725
847.30	1.598
847.48	2.107
847.66	2.834
847.84	2.943
848.02	2.778
848.20	3.313
848.38	2.529
848.56	3.318
848.74	2.568
848.92	2.979
849.10	3.441
849.28	3.113
849.46	3.295
849.64	2.827
849.82	2.899
850.00	2.603
850.18	2.522
850.36	2.069
850.54	2.399
850.72	2.417
850.90	2.717
851.08	1.910
851.26	1.733
851.44	1.696
851.62	2.249
851.80	1.829
851.98	2.002
852.16	1.671
852.34	1.767
852.52	1.127
852.70	1.577
852.87	0.861
853.05	1.150
853.23	0.894
853.41	1.396
853.59	1.017
853.77	0.880
853.95	1.064
854.13	0.101
854.31	0.371
854.49	1.053
854.67	0.790
854.85	0.681
855.03	0.706
855.21	0.303
855.39	0.945
855.57	1.087
855.75	0.728
855.93	0.153
856.11	0.664
856.28	0.922
856.46	0.062
856.64	1.004
856.82	0.276
857.00	1.043
857.18	0.755
857.36	0.746
857.54	-0.062
857.72	0.787
857.90	0.472
858.08	0.844
858.26	1.085
858.44	0.813
858.61	0.188
858.79	0.368
858.97	0.501
859.15	0.168
859.33	0.567
859.51	0.114
859.69	0.392
859.87	0.399
860.05	0.282
860.23	-0.063
860.40	0.659
860.58	0.312
860.76	0.659
860.94	0.801
861.12	0.480
861.30	-0.159
861.48	0.271
861.66	0.568
861.84	0.000
862.01	0.647
862.19	0.777
862.37	0.200
862.55	1.029
862.73	1.274
862.91	0.277
863.09	0.569
863.27	0.536
863.44	0.982
863.62	0.639
863.80	0.849
863.98	0.144
864.16	0.636
864.34	0.606
864.52	0.730
864.69	0.793
864.87	1.274
865.05	0.634
865.23	0.533
865.41	0.292
865.59	-0.011
865.76	0.087
865.94	0.691
866.12	0.971
866.30	1.037
866.48	0.978
866.66	0.961
866.83	0.246
867.01	0.489
867.19	0.664
867.37	0.325
867.55	0.101
867.73	0.091
867.90	0.710
868.08	0.122
868.26	0.686
868.44	0.430
868.62	0.660
868.79	0.303
868.97	1.018
869.15	0.597
869.33	0.876
869.51	0.184
869.69	0.877
869.86	0.409
870.04	0.366
870.22	0.217
870.40	0.853
870.57	1.075
870.75	0.905
870.93	0.693
871.11	1.082
871.29	0.658
871.46	0.306
871.64	-0.331
871.82	1.152
872.00	0.824
872.18	0.570
872.35	0.929
872.53	1.213
872.71	0.465
872.89	0.757
873.06	0.597
873.24	0.333
873.42	0.788
873.60	0.379
873.77	-0.381
873.95	0.465
874.13	0.216
874.31	1.166
874.49	0.795
874.66	0.747
874.84	-0.250
875.02	0.380
875.20	-0.012
875.37	1.043
875.55	0.631
875.73	0.292
875.91	0.759
876.08	0.481
876.26	0.854
876.44	0.594
876.61	0.371
876.79	0.715
876.97	0.925
877.15	1.426
877.32	0.857
877.50	0.882
877.68	0.885
877.86	0.875
878.03	1.625
878.21	1.061
878.39	0.073
878.56	0.881
878.74	0.935
878.92	0.504
879.10	0.794
879.27	0.488
879.45	0.605
879.63	0.569
879.80	0.209
879.98	0.208
880.16	0.749
880.34	0.978
880.51	0.157
880.69	0.546
880.87	0.293
881.04	0.429
881.22	0.626
881.40	0.451
881.57	0.493
881.75	0.061
881.93	1.077
882.10	0.627
882.28	-0.036
882.46	0.738
882.63	0.711
882.81	0.622
882.99	0.232
883.16	0.529
883.34	1.021
883.52	0.542
883.69	0.652
883.87	0.686
884.05	0.546
884.22	0.457
884.40	0.529
884.58	0.442
884.75	0.012
884.93	1.591
885.11	0.182
885.28	0.217
885.46	0.270
885.64	-0.134
885.81	0.036
885.99	1.169
886.17	0.436
886.34	-0.073
886.52	0.780
886.70	-0.061
886.87	0.211
887.05	0.086
887.22	0.583
887.40	1.315
887.58	1.014
887.75	0.303
887.93	1.330
888.11	0.618
888.28	0.236
888.46	0.614
888.63	1.230
888.81	0.088
888.99	1.127
889.16	0.545
889.34	0.599
889.51	1.812
889.69	0.378
889.87	1.148
890.04	0.693
890.22	-0.076
890.39	0.159
890.57	0.457
890.75	0.587
890.92	0.423
891.10	1.415
891.27	1.075
891.45	0.994
891.63	0.277
891.80	1.137
891.98	0.859
892.15	0.765
892.33	0.000
892.51	0.990
892.68	1.152
892.86	0.751
893.03	1.523
893.21	0.430
893.38	0.437
893.56	0.706
893.74	1.432
893.91	0.744
894.09	0.316
894.26	0.844
894.44	0.910
894.61	0.791
894.79	0.624
894.96	0.530
895.14	1.051
895.32	0.515
895.49	0.989
895.67	-0.103
895.84	0.481
896.02	1.071
896.19	1.145
896.37	0.335
896.54	1.911
896.72	1.207
896.89	0.181
897.07	0.688
897.25	0.788
897.42	0.712
897.60	0.295
897.77	0.515
897.95	1.145
898.12	0.331
898.30	1.482
898.47	-0.182
898.65	0.651
898.82	0.700
899.00	0.517
899.17	1.180
899.35	0.860
899.52	0.933
899.70	0.185
899.87	0.930
900.05	0.531
900.22	0.334
900.40	1.031
900.57	0.647
900.75	1.268
900.92	0.833
901.10	-0.300
901.27	1.304
901.45	0.707
901.62	1.177
901.80	-0.111
901.97	0.634
902.15	1.115
902.32	0.669
902.50	1.135
902.67	0.395
902.85	1.187
903.02	1.602
903.20	1.040
903.37	1.663
903.54	0.710
903.72	0.832
903.89	1.228
904.07	0.847
904.24	0.902
904.42	0.325
904.59	0.748
904.77	0.945
904.94	1.006
905.12	1.269
905.29	1.340
905.47	0.997
905.64	0.887
905.81	0.934
905.99	1.241
906.16	1.609
906.34	1.121
906.51	-0.277
906.69	1.170
906.86	1.307
907.03	0.533
907.21	0.044
907.38	0.564
907.56	1.449
907.73	1.096
907.91	0.820
908.08	0.424
908.25	0.190
908.43	1.254
908.60	1.374
908.78	1.611
908.95	1.303
909.13	1.440
909.30	1.584
909.47	1.258
909.65	1.510
909.82	2.031
910.00	2.107
910.17	1.312
910.34	1.052
910.52	1.170
910.69	1.257
910.87	1.494
911.04	1.831
911.21	1.679
911.39	1.037
911.56	1.225
911.73	1.397
911.91	2.589
912.08	2.131
912.26	1.938
912.43	2.389
912.60	3.358
912.78	2.049
912.95	1.691
913.13	2.565
913.30	2.538
913.47	2.875
913.65	4.249
913.82	4.418
913.99	5.385
914.17	5.596
914.34	6.259
914.51	6.930
914.69	8.128
914.86	8.394
915.03	8.653
915.21	10.336
915.38	11.871
915.56	11.756
915.73	12.276
915.90	15.161
916.08	16.192
916.25	18.525
916.42	18.191
916.60	19.954
916.77	23.356
916.94	22.735
917.12	24.916
917.29	26.846
917.46	27.644
917.64	28.918
917.81	31.616
917.98	32.378
918.16	32.298
918.33	32.948
918.50	33.266
918.67	32.082
918.85	33.992
919.02	31.154
919.19	33.293
919.37	30.639
919.54	31.435
919.71	30.943
919.89	30.252
920.06	30.665
920.23	29.222
920.41	28.214
920.58	26.520
920.75	26.477
920.92	24.583
921.10	22.788
921.27	22.553
921.44	22.356
921.62	21.485
921.79	20.281
921.96	20.493
922.13	19.986
922.31	17.886
922.48	19.744
922.65	17.219
922.82	17.120
923.00	16.174
923.17	15.301
923.34	14.861
923.52	14.697
923.69	14.984
923.86	14.047
924.03	13.679
924.21	14.581
924.38	13.452
924.55	13.875
924.72	12.403
924.90	14.500
925.07	14.177
925.24	13.675
925.41	12.775
925.59	12.943
925.76	13.042
925.93	11.882
926.10	12.061
926.28	12.425
926.45	12.908
926.62	11.535
926.79	13.543
926.96	12.545
927.14	12.356
927.31	13.066
927.48	13.039
927.65	13.442
927.83	14.369
928.00	12.625
928.17	14.160
928.34	12.508
928.51	14.018
928.69	14.515
928.86	13.906
929.03	14.859
929.20	14.875
929.37	13.689
929.55	13.253
929.72	14.712
929.89	14.463
930.06	15.454
930.23	13.978
930.41	15.029
930.58	15.198
930.75	16.677
930.92	15.581
931.09	15.068
931.27	15.126
931.44	15.886
931.61	15.340
931.78	15.547
931.95	15.520
932.12	16.702
932.30	16.888
932.47	16.463
932.64	15.851
932.81	17.588
932.98	17.051
933.16	17.388
933.33	17.925
933.50	19.102
933.67	20.342
933.84	19.824
934.01	18.082
934.18	21.040
934.36	22.197
934.53	22.632
934.70	22.308
934.87	23.320
935.04	22.317
935.21	24.463
935.38	23.939
935.56	26.806
935.73	25.853
935.90	26.700
936.07	28.924
936.24	30.562
936.41	31.175
936.58	33.271
936.76	32.388
936.93	34.528
937.10	33.847
937.27	37.211
937.44	37.626
937.61	41.607
937.78	39.717
937.95	42.211
938.13	43.468
938.30	46.031
938.47	46.023
938.64	49.593
938.81	48.472
938.98	52.581
939.15	54.598
939.32	54.326
939.49	56.159
939.66	60.391
939.84	57.322
940.01	59.112
940.18	60.141
940.35	63.690
940.52	64.458
940.69	63.743
940.86	63.944
941.03	64.790
941.20	64.731
941.37	63.611
941.54	64.355
941.71	66.565
941.89	66.047
942.06	66.094
942.23	64.515
942.40	65.217
942.57	65.133
942.74	62.225
942.91	66.225
943.08	63.610
943.25	60.348
943.42	57.910
943.59	61.295
943.76	60.728
943.93	61.791
944.10	60.171
944.27	61.188
944.44	59.973
944.61	58.734
944.79	57.942
944.96	60.405
945.13	60.999
945.30	59.771
945.47	57.328
945.64	60.921
945.81	57.935
945.98	58.457
946.15	59.194
946.32	56.721
946.49	58.763
946.66	57.921
946.83	61.753
947.00	61.441
947.17	60.846
947.34	61.776
947.51	59.686
947.68	65.088
947.85	62.780
948.02	62.098
948.19	62.215
948.36	65.190
948.53	63.731
948.70	66.339
948.87	68.925
949.04	68.600
949.21	65.701
949.38	68.626
949.55	71.356
949.72	69.790
949.89	70.902
950.06	72.269
950.23	71.364
950.40	68.503
950.57	73.123
950.74	68.664
950.91	69.278
951.08	66.576
951.25	67.907
951.42	66.362
951.59	64.903
951.76	62.117
951.93	63.794
952.10	60.079
952.27	58.801
952.44	59.276
952.61	59.297
952.77	52.304
952.94	53.361
953.11	54.237
953.28	51.692
953.45	49.058
953.62	47.697
953.79	43.504
953.96	46.041
954.13	43.661
954.30	41.930
954.47	42.048
954.64	39.804
954.81	38.776
954.98	36.560
955.15	35.592
955.32	35.385
955.49	32.503
955.65	30.500
955.82	29.402
955.99	30.387
956.16	29.834
956.33	27.995
956.50	27.977
956.67	27.962
956.84	25.997
957.01	26.294
957.18	24.056
957.35	21.877
957.52	23.847
957.68	23.978
957.85	21.923
958.02	23.693
958.19	22.166
958.36	22.666
958.53	21.721
958.70	23.437
958.87	19.286
959.04	20.782
959.21	20.860
959.37	19.442
959.54	22.909
959.71	18.015
959.88	19.582
960.05	20.419
960.22	20.769
960.39	19.795
960.56	21.834
960.72	24.501
960.89	20.995
961.06	22.432
961.23	22.222
961.40	24.972
961.57	23.484
961.74	24.322
961.90	25.588
962.07	26.030
962.24	27.172
962.41	28.916
962.58	28.992
962.75	29.488
962.92	29.560
963.08	34.114
963.25	34.199
963.42	36.817
963.59	40.262
963.76	39.167
963.93	42.140
964.10	43.998
964.26	42.529
964.43	43.209
964.60	45.142
964.77	46.071
964.94	48.058
965.10	47.195
965.27	46.194
965.44	47.621
965.61	49.792
965.78	50.372
965.95	47.351
966.11	48.555
966.28	47.800
966.45	49.332
966.62	47.938
966.79	45.470
966.95	44.832
967.12	44.292
967.29	43.669
967.46	42.741
967.63	37.426
967.79	37.474
967.96	36.988
968.13	36.299
968.30	35.749
968.47	35.251
968.63	31.490
968.80	31.736
968.97	29.710
969.14	27.495
969.31	28.186
969.47	25.700
969.64	26.297
969.81	22.181
969.98	22.238
970.14	22.986
970.31	20.722
970.48	21.677
970.65	21.408
970.81	17.323
970.98	19.169
971.15	16.569
971.32	16.322
971.48	13.290
971.65	17.318
971.82	14.942
971.99	12.637
972.15	12.948
972.32	11.672
972.49	10.483
972.66	13.623
972.82	12.372
972.99	9.980
973.16	10.964
973.33	13.245
973.49	10.296
973.66	7.696
973.83	5.771
974.00	11.267
974.16	8.141
974.33	10.305
974.50	8.276
974.67	8.112
974.83	6.181
975.00	8.603
975.17	6.199
975.33	8.173
975.50	5.520
975.67	7.660
975.84	9.539
976.00	9.019
976.17	7.307
976.34	5.863
976.50	4.566
976.67	5.995
976.84	5.762
977.00	9.550
977.17	4.832
977.34	6.287
977.50	5.650
977.67	4.073
977.84	6.418
978.01	7.324
978.17	9.353
978.34	6.864
978.51	5.000
978.67	7.321
978.84	8.096
979.01	4.465
979.17	8.379
979.34	5.787
979.51	6.122
979.67	9.625
979.84	9.563
980.01	12.362
980.17	9.617
980.34	9.676
980.51	9.386
980.67	15.292
980.84	11.939
981.01	14.345
981.17	17.990
981.34	17.220
981.50	17.908
981.67	19.579
981.84	22.983
982.00	27.164
982.17	23.311
982.34	23.041
982.50	26.277
982.67	28.075
982.84	32.895
983.00	29.695
983.17	25.846
983.33	28.774
983.50	36.505
983.67	31.690
983.83	30.779
984.00	35.631
984.17	38.336
984.33	31.039
984.50	39.654
984.66	38.774
984.83	38.320
985.00	32.462
985.16	34.441
985.33	31.535
985.49	34.465
985.66	32.808
985.83	27.495
985.99	30.088
986.16	28.642
986.32	27.192
986.49	29.487
986.66	24.933
986.82	20.471
986.99	25.480
987.15	23.562
987.32	18.623
987.49	24.708
987.65	17.465
987.82	19.329
987.98	17.919
988.15	16.784
988.31	16.397
988.48	16.679
988.65	17.994
988.81	13.241
988.98	16.076
989.14	8.455
989.31	13.938
989.47	13.181
989.64	11.137
989.80	14.286
989.97	15.623
990.14	9.719
990.30	9.874
990.47	7.893
990.63	15.317
990.80	11.431
990.96	9.894
991.13	6.948
991.29	6.326
991.46	5.744
991.62	10.582
991.79	6.969
991.95	10.706
992.12	11.452
992.29	6.801
992.45	7.050
992.62	8.722
992.78	9.646
992.95	6.799
993.11	4.479
993.28	3.000
993.44	-1.386
993.61	5.726
993.77	4.373
993.94	3.934
994.10	10.399
994.27	2.681
994.43	3.397
994.60	3.978
994.76	3.600
994.93	2.888
995.09	10.317
995.26	8.540
995.42	9.050
995.59	7.286
995.75	3.000
995.92	12.567
996.08	10.338
996.25	6.783
996.41	2.936
996.58	16.349
996.74	1.980
996.91	6.043
997.07	6.839
997.23	11.364
997.40	3.953
997.56	8.804
997.73	7.493
997.89	7.136
998.06	0.852
998.22	3.779
998.39	7.038
998.55	8.218
998.72	7.708
998.88	9.625
999.05	2.058
999.21	8.266
999.37	14.442
999.54	0.787
999.70	5.783
999.87	9.315
1000.03	5.585
1000.20	-1.163
1000.36	3.679
1000.52	8.597
1000.69	8.099
1000.85	5.118
1001.02	5.387
1001.18	3.969
1001.35	7.064
1001.51	4.801
1001.67	8.488
1001.84	4.935
1002.00	4.778
1002.17	6.102
1002.33	4.704
1002.50	-0.818
1002.66	6.265
1002.82	2.740
1002.99	1.595
1003.15	13.675
1003.32	5.882
1003.48	8.383
1003.64	11.151
1003.81	9.945
1003.97	5.869
1004.14	-0.130
1004.30	6.487
1004.46	10.162
1004.63	2.724
1004.79	11.845
1004.95	8.468
1005.12	-1.132
1005.28	9.586
1005.45	9.325
1005.61	5.889
1005.77	2.941
1005.94	7.631
1006.10	8.438
1006.26	7.176
1006.43	3.475
1006.59	5.663
1006.76	2.547
1006.92	14.941
1007.08	1.994
1007.25	2.526
1007.41	6.633
1007.57	-1.697
1007.74	12.016
1007.90	7.077
1008.06	6.897
1008.23	16.971
1008.39	12.103
1008.55	10.498
1008.72	3.852
1008.88	18.168
1009.04	5.113
1009.21	8.227
1009.37	9.463
1009.53	5.590
1009.70	12.130
1009.86	10.437
1010.02	4.885
1010.19	10.618
1010.35	16.444
1010.51	11.765
1010.68	13.851
1010.84	7.418
1011.00	5.891
1011.17	10.725
1011.33	3.647
1011.49	1.429
1011.66	13.636
1011.82	14.649
1011.98	5.556
1012.14	9.949
1012.31	7.447
1012.47	9.920
1012.63	9.919
1012.80	9.306
1012.96	14.381
1013.12	15.548
1013.29	3.697
1013.45	5.827
1013.61	1.990
1013.77	11.913
1013.94	10.383
1014.10	18.214
1014.26	5.730
1014.43	9.074
1014.59	15.460
1014.75	11.984
1014.91	12.523
1015.08	17.366
1015.24	19.718
1015.40	2.183
1015.56	20.522
1015.73	7.937
1015.89	19.301
1016.05	10.662
1016.21	12.852
1016.38	14.781
1016.54	10.755
1016.70	5.477
1016.86	24.000
1017.03	16.376
1017.19	13.309
1017.35	-2.649
1017.51	3.480
1017.68	1.029
1017.84	1.016
1018.00	15.607
1018.16	18.371
1018.33	17.559
1018.49	18.828
1018.65	15.730
1018.81	7.940
1018.97	15.400
1019.14	6.540
1019.30	15.274
1019.46	16.898
1019.62	15.859
1019.79	17.563
1019.95	-0.225
1020.11	16.782
1020.27	18.511
1020.43	10.921
1020.60	8.019
1020.76	13.907
1020.92	25.183
1021.08	9.213
1021.24	4.861
1021.41	4.678
1021.57	15.594
1021.73	8.578
1021.89	26.398
1022.05	1.777
1022.21	26.649
1022.38	11.521
1022.54	30.958
1022.70	9.067
1022.86	24.594
1023.02	18.137
1023.19	26.984
1023.35	28.571
1023.51	20.000
1023.67	28.534
1023.83	28.412
1023.99	44.817
1024.16	25.776
1024.32	31.941
1024.48	40.456
1024.64	19.091
1024.80	43.213
1024.96	47.989
1025.12	52.793
1025.29	51.436
1025.45	65.732
1025.61	52.907
1025.77	44.297
1025.93	58.524
1026.09	39.045
1026.26	53.398
1026.42	57.641
1026.58	56.818
1026.74	81.919
1026.90	54.848
1027.06	49.363
1027.22	64.526
1027.38	74.062
1027.55	83.402
1027.71	63.141
1027.87	74.931
1028.03	56.678
1028.19	44.853
1028.35	56.897
1028.51	67.153
1028.67	79.649
1028.83	60.150
1029.00	56.929
1029.16	61.538
1029.32	74.074
1029.48	61.765
1029.64	55.960
1029.80	69.123
1029.96	71.565
1030.12	74.150
1030.28	70.270
1030.44	78.182
1030.61	63.672
1030.77	67.063
1030.93	69.202
1031.09	79.832
1031.25	66.512
1031.41	56.250
1031.57	52.747
1031.73	60.619
1031.89	68.163
1032.05	44.578
1032.21	55.605
1032.37	58.025
1032.53	41.818
1032.69	58.025
1032.86	54.444
1033.02	61.650
1033.18	65.844
1033.34	49.479
1033.50	36.410
1033.66	35.784
1033.82	56.710
1033.98	48.085
1034.14	50.000
1034.30	27.434
1034.46	51.899
1034.62	25.731
1034.78	43.946
1034.94	40.856
1035.10	32.000
1035.26	37.069
1035.42	74.706
1035.58	34.756
1035.74	45.946
1035.90	56.122
1036.06	53.659
1036.22	54.808
1036.38	40.141
1036.54	56.075
1036.70	37.363
1036.86	52.273
1037.02	20.690
1037.18	41.935
1037.34	35.714
1037.50	59.140
1037.66	53.846
1037.82	48.792
1037.98	45.685
1038.14	43.275
1038.30	28.846
1038.46	56.757
1038.62	43.147
1038.78	64.063
1038.94	68.750
1039.10	40.741
1039.26	37.126
1039.42	96.296
1039.58	40.426
1039.74	39.865
1039.90	26.282
1040.06	72.549
>>>>>End Processed Spectral Data<<<<<
