SpectraSuite Data File
++++++++++++++++++++++++++++++++++++
Date: Wed Feb 01 15:56:37 EET 2017
User: optolab
Dark Spectrum Present: Yes
Reference Spectrum Present: Yes
Number of Sampled Component Spectra: 1
Spectrometers: USB4C02475
Integration Time (usec): 100000 (USB4C02475)
Spectra Averaged: 1 (USB4C02475)
Boxcar Smoothing: 0 (USB4C02475)
Correct for Electrical Dark: No (USB4C02475)
Strobe/Lamp Enabled: No (USB4C02475)
Correct for Detector Non-linearity: No (USB4C02475)
Correct for Stray Light: No (USB4C02475)
Number of Pixels in Processed Spectrum: 3648
>>>>>Begin Processed Spectral Data<<<<<
344,91	2800,000
345,13	2800,000
345,35	2800,000
345,57	0,000
345,79	463,158
346,00	-1755,556
346,22	-1742,857
346,44	420,588
346,66	-375,000
346,87	-9300,000
347,09	369,697
347,31	-622,727
347,53	-333,333
347,74	249,231
347,96	415,152
348,18	921,053
348,40	300,000
348,61	870,588
348,83	304,762
349,05	272,549
349,27	-5500,000
349,48	588,462
349,70	-386,207
349,92	516,129
350,14	205,660
350,35	294,000
350,57	2450,000
350,79	620,000
351,01	-766,667
351,22	242,593
351,44	753,846
351,66	-428,000
351,87	-533,333
352,09	257,692
352,31	288,525
352,53	203,125
352,74	469,444
352,96	229,870
353,18	610,526
353,40	488,000
353,61	291,111
353,83	258,824
354,05	1181,818
354,26	2166,667
354,48	278,000
354,70	330,303
354,92	-293,103
355,13	201,010
355,35	345,455
355,57	695,833
355,78	208,434
356,00	-3025,000
356,22	415,385
356,44	6450,000
356,65	284,091
356,87	415,385
357,09	437,500
357,30	277,778
357,52	277,586
357,74	750,000
357,95	358,974
358,17	155,738
358,39	314,516
358,60	400,000
358,82	466,667
359,04	559,259
359,26	380,000
359,47	9400,000
359,69	297,500
359,91	403,030
360,12	528,571
360,34	416,667
360,56	-111,111
360,77	3025,000
360,99	609,524
361,21	238,000
361,42	4550,000
361,64	206,122
361,86	304,615
362,07	-477,419
362,29	240,000
362,51	-564,706
362,72	528,000
362,94	461,765
363,16	258,140
363,37	-992,857
363,59	469,231
363,81	404,545
364,02	538,889
364,24	654,167
364,46	4566,667
364,67	1100,000
364,89	1757,143
365,11	147,143
365,32	510,345
365,54	377,778
365,76	236,735
365,97	361,765
366,19	251,724
366,41	645,455
366,62	396,296
366,84	244,186
367,05	340,816
367,27	1100,000
367,49	-546,154
367,70	764,706
367,92	288,525
368,14	293,750
368,35	-11300,000
368,57	372,000
368,79	344,828
369,00	289,130
369,22	-1450,000
369,43	207,059
369,65	246,774
369,87	429,730
370,08	207,229
370,30	301,786
370,51	245,902
370,73	288,889
370,95	264,516
371,16	271,429
371,38	500,000
371,60	1937,500
371,81	196,875
372,03	813,333
372,24	466,667
372,46	239,623
372,68	175,714
372,89	257,576
373,11	361,538
373,32	431,818
373,54	-969,231
373,76	915,385
373,97	733,333
374,19	545,455
374,40	237,500
374,62	-2966,667
374,84	4125,000
375,05	414,286
375,27	310,000
375,48	-12100,000
375,70	132,000
375,92	192,857
376,13	356,250
376,35	246,575
376,56	931,250
376,78	218,056
376,99	457,143
377,21	287,500
377,43	224,242
377,64	217,391
377,86	386,207
378,07	271,795
378,29	-1625,000
378,51	577,419
378,72	291,667
378,94	-1200,000
379,15	333,333
379,37	776,471
379,58	209,231
379,80	666,667
380,01	543,750
380,23	227,451
380,45	1900,000
380,66	3566,667
380,88	238,636
381,09	235,714
381,31	151,111
381,52	229,412
381,74	1622,222
381,95	636,364
382,17	526,923
382,39	504,762
382,60	167,347
382,82	289,744
383,03	275,000
383,25	251,613
383,46	309,091
383,68	337,037
383,89	465,000
384,11	274,194
384,32	-3433,333
384,54	650,000
384,76	-4000,000
384,97	406,061
385,19	544,828
385,40	280,392
385,62	212,281
385,83	328,571
386,05	198,039
386,26	304,000
386,48	178,161
386,69	325,000
386,91	455,000
387,12	200,000
387,34	182,759
387,55	214,516
387,77	378,125
387,98	373,077
388,20	206,522
388,41	264,706
388,63	7300,000
388,84	218,033
389,06	285,714
389,27	542,105
389,49	408,333
389,70	285,714
389,92	303,333
390,13	181,633
390,35	211,765
390,56	272,222
390,78	492,593
390,99	920,000
391,21	442,105
391,42	304,444
391,64	319,512
391,85	182,759
392,07	122,727
392,28	208,000
392,50	227,273
392,71	-725,000
392,93	253,846
393,14	436,111
393,36	216,327
393,57	107,519
393,79	733,333
394,00	265,957
394,22	154,795
394,43	162,651
394,65	260,465
394,86	1000,000
395,08	642,857
395,29	149,057
395,50	400,000
395,72	705,556
395,93	657,143
396,15	176,056
396,36	225,000
396,58	208,333
396,79	342,500
397,01	204,000
397,22	241,667
397,44	212,121
397,65	143,860
397,87	330,952
398,08	228,571
398,29	346,875
398,51	221,429
398,72	219,512
398,94	218,462
399,15	334,286
399,37	175,439
399,58	162,637
399,80	490,909
400,01	264,815
400,22	323,810
400,44	145,679
400,65	339,286
400,87	148,529
401,08	132,857
401,30	228,261
401,51	192,982
401,72	361,538
401,94	144,304
402,15	540,000
402,37	152,941
402,58	577,778
402,80	265,714
403,01	204,225
403,22	827,273
403,44	237,681
403,65	103,571
403,87	214,286
404,08	479,487
404,30	134,118
404,51	-1600,000
404,72	148,571
404,94	174,510
405,15	120,000
405,37	174,684
405,58	169,412
405,79	201,220
406,01	260,976
406,22	198,276
406,44	297,872
406,65	217,544
406,86	168,750
407,08	125,316
407,29	116,505
407,51	171,951
407,72	163,889
407,93	152,174
408,15	99,145
408,36	230,233
408,58	154,639
408,79	122,500
409,00	173,958
409,22	180,952
409,43	134,177
409,64	100,000
409,86	76,101
410,07	102,308
410,29	95,522
410,50	134,752
410,71	146,429
410,93	87,898
411,14	136,434
411,35	102,381
411,57	115,789
411,78	107,813
412,00	115,924
412,21	116,774
412,42	78,307
412,64	81,116
412,85	99,485
413,06	127,439
413,28	80,631
413,49	94,787
413,70	97,826
413,92	102,372
414,13	77,593
414,34	85,824
414,56	91,259
414,77	134,599
414,98	86,577
415,20	89,273
415,41	96,034
415,63	78,607
415,84	91,667
416,05	90,385
416,27	81,912
416,48	92,416
416,69	81,637
416,91	82,162
417,12	92,781
417,33	88,632
417,55	85,111
417,76	93,224
417,97	86,515
418,19	79,523
418,40	95,106
418,61	92,963
418,83	83,091
419,04	81,073
419,25	82,710
419,46	87,068
419,68	78,889
419,89	79,732
420,10	80,408
420,32	75,965
420,53	80,735
420,74	85,642
420,96	86,125
421,17	80,947
421,38	77,476
421,60	82,119
421,81	85,877
422,02	84,326
422,23	77,934
422,45	74,425
422,66	77,303
422,87	78,640
423,09	76,966
423,30	83,100
423,51	83,386
423,73	74,194
423,94	74,930
424,15	76,667
424,36	76,160
424,58	72,625
424,79	76,140
425,00	75,542
425,22	71,205
425,43	71,214
425,64	72,957
425,85	70,294
426,07	70,140
426,28	72,105
426,49	68,920
426,71	66,468
426,92	63,982
427,13	61,099
427,34	64,255
427,56	63,405
427,77	57,215
427,98	58,147
428,19	56,224
428,41	58,218
428,62	55,506
428,83	52,305
429,04	52,479
429,26	52,405
429,47	50,380
429,68	49,861
429,89	47,980
430,11	48,667
430,32	47,870
430,53	46,496
430,74	49,385
430,96	48,489
431,17	47,769
431,38	50,559
431,59	50,507
431,81	53,220
432,02	52,343
432,23	54,568
432,44	55,873
432,66	56,930
432,87	57,950
433,08	56,424
433,29	57,216
433,51	56,488
433,72	56,902
433,93	55,847
434,14	53,317
434,35	54,795
434,57	51,083
434,78	49,590
434,99	48,197
435,20	43,906
435,42	43,040
435,63	39,523
435,84	38,017
436,05	34,337
436,26	31,390
436,48	29,829
436,69	27,961
436,90	25,612
437,11	23,941
437,32	21,863
437,54	20,803
437,75	18,158
437,96	17,460
438,17	15,430
438,38	13,809
438,60	12,758
438,81	11,290
439,02	11,301
439,23	9,726
439,44	9,284
439,66	8,811
439,87	8,064
440,08	7,315
440,29	6,434
440,50	6,413
440,72	6,042
440,93	5,460
441,14	4,848
441,35	4,221
441,56	3,437
441,77	3,175
441,99	2,485
442,20	2,067
442,41	1,408
442,62	1,180
442,83	1,283
443,04	1,049
443,26	0,976
443,47	1,250
443,68	1,003
443,89	0,828
444,10	0,769
444,31	0,686
444,53	0,824
444,74	0,735
444,95	0,784
445,16	0,761
445,37	0,719
445,58	0,824
445,80	0,757
446,01	0,865
446,22	0,528
446,43	0,690
446,64	0,829
446,85	0,696
447,06	0,977
447,28	0,741
447,49	0,670
447,70	0,999
447,91	0,682
448,12	0,459
448,33	0,705
448,54	0,874
448,76	0,749
448,97	0,945
449,18	0,520
449,39	0,859
449,60	0,979
449,81	0,947
450,02	0,913
450,23	0,883
450,45	0,800
450,66	0,787
450,87	0,827
451,08	0,582
451,29	1,073
451,50	0,795
451,71	0,819
451,92	0,681
452,13	0,362
452,35	1,135
452,56	0,877
452,77	0,905
452,98	0,645
453,19	0,582
453,40	0,516
453,61	0,946
453,82	0,580
454,03	0,730
454,25	1,028
454,46	0,707
454,67	1,204
454,88	1,073
455,09	0,860
455,30	0,898
455,51	0,894
455,72	0,940
455,93	0,748
456,14	0,924
456,35	0,938
456,56	0,857
456,78	0,925
456,99	0,993
457,20	0,967
457,41	0,561
457,62	0,776
457,83	0,798
458,04	0,866
458,25	0,870
458,46	0,654
458,67	0,910
458,88	1,052
459,09	0,620
459,30	0,825
459,51	0,882
459,73	0,463
459,94	1,142
460,15	0,840
460,36	0,742
460,57	0,525
460,78	0,655
460,99	0,511
461,20	0,680
461,41	0,642
461,62	0,460
461,83	0,815
462,04	0,630
462,25	0,936
462,46	0,670
462,67	0,588
462,88	0,722
463,09	0,762
463,30	0,655
463,51	0,659
463,72	0,728
463,93	0,588
464,15	0,622
464,36	0,499
464,57	0,608
464,78	0,398
464,99	0,602
465,20	0,578
465,41	0,537
465,62	0,715
465,83	0,605
466,04	0,625
466,25	0,682
466,46	0,711
466,67	0,606
466,88	0,603
467,09	0,758
467,30	0,563
467,51	0,809
467,72	0,764
467,93	0,771
468,14	0,827
468,35	1,183
468,56	0,973
468,77	1,239
468,98	1,565
469,19	1,945
469,40	2,107
469,61	2,543
469,82	2,843
470,03	3,523
470,24	4,220
470,45	4,657
470,66	5,169
470,87	5,676
471,08	6,714
471,29	7,575
471,50	8,645
471,71	9,511
471,92	11,173
472,13	12,522
472,34	13,704
472,55	15,455
472,76	17,411
472,97	19,294
473,18	20,794
473,39	22,250
473,60	24,343
473,81	26,394
474,01	28,082
474,22	30,499
474,43	32,544
474,64	34,877
474,85	37,320
475,06	39,622
475,27	42,323
475,48	44,776
475,69	47,009
475,90	49,300
476,11	51,171
476,32	53,338
476,53	55,042
476,74	56,756
476,95	58,549
477,16	58,941
477,37	59,263
477,58	61,337
477,79	61,974
478,00	62,235
478,21	63,177
478,41	62,164
478,62	62,817
478,83	61,242
479,04	60,977
479,25	59,020
479,46	58,348
479,67	57,549
479,88	57,106
480,09	57,075
480,30	56,363
480,51	56,085
480,72	55,539
480,93	55,039
481,14	56,598
481,34	56,317
481,55	57,485
481,76	58,350
481,97	59,816
482,18	61,183
482,39	63,063
482,60	63,476
482,81	65,224
483,02	66,251
483,23	69,385
483,44	70,940
483,65	71,853
483,85	74,247
484,06	75,148
484,27	76,204
484,48	76,669
484,69	77,207
484,90	77,628
485,11	78,031
485,32	77,876
485,53	76,608
485,73	77,237
485,94	76,419
486,15	75,228
486,36	74,780
486,57	74,420
486,78	74,266
486,99	74,174
487,20	73,511
487,41	73,304
487,61	74,561
487,82	73,522
488,03	74,741
488,24	76,764
488,45	77,114
488,66	77,465
488,87	78,633
489,08	78,667
489,28	79,386
489,49	80,390
489,70	80,157
489,91	81,480
490,12	82,143
490,33	80,926
490,54	81,836
490,74	81,915
490,95	80,229
491,16	81,191
491,37	81,613
491,58	81,212
491,79	82,536
492,00	82,584
492,20	83,220
492,41	82,565
492,62	82,792
492,83	82,919
493,04	83,333
493,25	83,528
493,45	83,278
493,66	83,205
493,87	83,021
494,08	81,488
494,29	80,084
494,50	80,240
494,70	79,282
494,91	80,035
495,12	77,866
495,33	78,008
495,54	77,468
495,75	76,309
495,95	75,901
496,16	76,193
496,37	74,997
496,58	74,905
496,79	75,599
496,99	74,362
497,20	73,824
497,41	73,502
497,62	72,399
497,83	72,416
498,04	70,595
498,24	70,389
498,45	69,564
498,66	69,573
498,87	68,796
499,08	67,852
499,28	68,586
499,49	68,368
499,70	68,027
499,91	68,154
500,12	67,660
500,32	68,074
500,53	67,962
500,74	67,811
500,95	67,972
501,15	68,133
501,36	68,526
501,57	68,487
501,78	68,851
501,99	68,716
502,19	69,985
502,40	70,548
502,61	71,737
502,82	72,712
503,02	72,806
503,23	74,144
503,44	76,020
503,65	75,900
503,86	76,370
504,06	77,385
504,27	78,310
504,48	79,632
504,69	80,002
504,89	80,051
505,10	80,719
505,31	81,520
505,52	79,112
505,72	79,678
505,93	79,287
506,14	79,203
506,35	77,463
506,55	76,498
506,76	74,268
506,97	73,225
507,18	72,632
507,38	70,731
507,59	68,136
507,80	67,685
508,01	65,729
508,21	63,385
508,42	62,431
508,63	60,540
508,84	59,174
509,04	58,085
509,25	55,833
509,46	54,586
509,67	53,125
509,87	52,222
510,08	49,802
510,29	49,050
510,49	47,956
510,70	46,587
510,91	44,695
511,12	43,706
511,32	42,484
511,53	40,745
511,74	40,371
511,94	39,588
512,15	38,514
512,36	37,142
512,57	36,122
512,77	35,260
512,98	33,466
513,19	32,839
513,39	31,462
513,60	29,973
513,81	29,520
514,01	28,320
514,22	27,154
514,43	25,703
514,64	24,469
514,84	23,287
515,05	22,077
515,26	20,673
515,46	19,922
515,67	18,160
515,88	16,790
516,08	15,778
516,29	14,388
516,50	12,762
516,70	11,286
516,91	10,276
517,12	8,709
517,32	7,870
517,53	6,746
517,74	5,847
517,95	4,880
518,15	4,208
518,36	3,203
518,57	2,952
518,77	2,265
518,98	2,011
519,19	1,511
519,39	1,267
519,60	1,214
519,80	1,080
520,01	0,881
520,22	0,856
520,42	0,859
520,63	0,704
520,84	0,590
521,04	0,712
521,25	0,793
521,46	0,817
521,66	0,708
521,87	0,545
522,08	0,798
522,28	0,768
522,49	0,497
522,70	0,692
522,90	0,782
523,11	0,663
523,31	0,768
523,52	0,617
523,73	0,859
523,93	0,769
524,14	0,558
524,35	0,589
524,55	0,781
524,76	0,515
524,97	0,728
525,17	0,734
525,38	0,518
525,58	0,670
525,79	0,517
526,00	0,584
526,20	0,561
526,41	0,536
526,61	0,637
526,82	0,650
527,03	0,537
527,23	0,609
527,44	0,712
527,64	0,742
527,85	0,591
528,06	0,678
528,26	0,872
528,47	0,618
528,68	0,696
528,88	0,697
529,09	0,571
529,29	0,627
529,50	0,488
529,70	0,735
529,91	0,710
530,12	0,712
530,32	0,599
530,53	0,486
530,73	0,817
530,94	0,728
531,15	0,697
531,35	0,654
531,56	0,716
531,76	0,591
531,97	0,742
532,17	0,649
532,38	0,513
532,59	0,673
532,79	0,814
533,00	0,810
533,20	0,646
533,41	0,600
533,61	0,798
533,82	0,840
534,03	0,536
534,23	0,865
534,44	0,571
534,64	0,791
534,85	0,715
535,05	0,561
535,26	0,472
535,46	0,749
535,67	0,626
535,88	0,587
536,08	0,716
536,29	0,560
536,49	0,739
536,70	0,616
536,90	0,750
537,11	0,649
537,31	0,565
537,52	0,636
537,72	0,661
537,93	0,742
538,13	0,761
538,34	0,851
538,55	0,919
538,75	0,760
538,96	1,030
539,16	0,726
539,37	0,875
539,57	0,775
539,78	0,858
539,98	0,845
540,19	0,984
540,39	0,900
540,60	0,915
540,80	0,991
541,01	1,114
541,21	1,332
541,42	1,598
541,62	1,614
541,83	1,709
542,03	2,166
542,24	2,033
542,44	2,832
542,65	3,215
542,85	3,854
543,06	4,370
543,26	4,892
543,47	5,782
543,67	7,079
543,88	8,195
544,08	9,288
544,29	10,706
544,49	12,035
544,70	14,052
544,90	15,790
545,11	17,468
545,31	19,521
545,52	21,876
545,72	23,958
545,93	26,085
546,13	28,750
546,34	30,915
546,54	33,434
546,75	36,492
546,95	38,185
547,15	40,422
547,36	42,618
547,56	43,469
547,77	45,460
547,97	47,710
548,18	48,687
548,38	50,047
548,59	51,287
548,79	52,842
549,00	53,808
549,20	55,758
549,41	56,222
549,61	57,432
549,81	59,191
550,02	60,502
550,22	61,771
550,43	64,046
550,63	65,798
550,84	67,215
551,04	69,274
551,25	70,534
551,45	72,044
551,65	73,682
551,86	76,626
552,06	76,746
552,27	78,462
552,47	79,163
552,68	79,837
552,88	79,548
553,08	80,535
553,29	81,083
553,49	79,881
553,70	79,913
553,90	79,763
554,11	79,351
554,31	78,954
554,51	77,994
554,72	77,591
554,92	77,523
555,13	77,131
555,33	76,851
555,53	77,809
555,74	76,225
555,94	76,390
556,15	76,967
556,35	77,107
556,56	77,776
556,76	77,746
556,96	77,689
557,17	78,328
557,37	78,883
557,58	80,191
557,78	80,942
557,98	81,300
558,19	81,537
558,39	82,352
558,59	83,023
558,80	83,699
559,00	83,912
559,21	84,366
559,41	84,325
559,61	84,356
559,82	85,827
560,02	85,706
560,23	85,827
560,43	86,243
560,63	85,622
560,84	87,231
561,04	87,615
561,24	86,901
561,45	88,162
561,65	88,618
561,85	88,106
562,06	88,060
562,26	89,544
562,47	88,469
562,67	88,415
562,87	89,656
563,08	89,505
563,28	88,300
563,48	88,457
563,69	89,854
563,89	89,797
564,09	89,351
564,30	89,788
564,50	89,731
564,70	90,165
564,91	88,943
565,11	90,054
565,31	88,893
565,52	88,238
565,72	88,429
565,92	89,455
566,13	87,822
566,33	88,026
566,53	87,780
566,74	87,356
566,94	85,350
567,14	84,254
567,35	83,110
567,55	82,500
567,75	82,301
567,96	80,621
568,16	78,925
568,36	77,474
568,57	76,958
568,77	75,037
568,97	73,938
569,18	74,045
569,38	74,003
569,58	72,207
569,79	71,975
569,99	71,239
570,19	71,296
570,39	71,889
570,60	70,214
570,80	70,789
571,00	71,401
571,21	71,152
571,41	71,368
571,61	70,907
571,82	71,295
572,02	70,192
572,22	70,898
572,42	70,095
572,63	68,555
572,83	67,069
573,03	66,449
573,24	65,709
573,44	63,742
573,64	62,086
573,84	60,365
574,05	58,844
574,25	56,701
574,45	54,354
574,66	52,013
574,86	51,048
575,06	49,195
575,26	47,637
575,47	46,609
575,67	45,983
575,87	45,012
576,07	44,150
576,28	43,997
576,48	43,121
576,68	42,129
576,88	41,860
577,09	41,336
577,29	40,865
577,49	40,720
577,69	39,748
577,90	39,221
578,10	38,121
578,30	37,403
578,50	36,728
578,71	36,143
578,91	35,105
579,11	34,538
579,31	34,202
579,52	33,876
579,72	32,669
579,92	32,345
580,12	32,066
580,33	31,865
580,53	31,264
580,73	31,093
580,93	31,194
581,13	31,110
581,34	31,054
581,54	30,415
581,74	29,772
581,94	30,386
582,15	29,734
582,35	29,607
582,55	29,614
582,75	29,012
582,95	28,727
583,16	27,537
583,36	26,732
583,56	25,584
583,76	23,775
583,96	22,658
584,17	20,961
584,37	19,886
584,57	18,043
584,77	17,442
584,97	15,690
585,18	14,637
585,38	13,166
585,58	11,841
585,78	10,636
585,98	9,169
586,19	8,411
586,39	7,209
586,59	6,288
586,79	5,297
586,99	4,654
587,20	4,009
587,40	3,439
587,60	2,804
587,80	2,607
588,00	2,500
588,20	1,676
588,41	1,608
588,61	1,207
588,81	1,046
589,01	1,041
589,21	0,899
589,41	0,744
589,62	0,685
589,82	0,434
590,02	0,494
590,22	0,790
590,42	0,490
590,62	0,436
590,83	0,544
591,03	0,588
591,23	0,386
591,43	0,779
591,63	0,576
591,83	0,458
592,03	0,577
592,24	0,499
592,44	0,570
592,64	0,563
592,84	0,477
593,04	0,479
593,24	0,439
593,44	0,543
593,65	0,626
593,85	0,524
594,05	0,237
594,25	0,621
594,45	0,370
594,65	0,419
594,85	0,501
595,06	0,369
595,26	0,436
595,46	0,331
595,66	0,361
595,86	0,686
596,06	0,457
596,26	0,326
596,46	0,455
596,66	0,536
596,87	0,520
597,07	0,465
597,27	0,484
597,47	0,380
597,67	0,698
597,87	0,547
598,07	0,328
598,27	0,664
598,47	0,639
598,67	0,474
598,88	0,409
599,08	0,573
599,28	0,412
599,48	0,515
599,68	0,514
599,88	0,435
600,08	0,513
600,28	0,722
600,48	0,384
600,68	0,425
600,88	0,520
601,09	0,395
601,29	0,503
601,49	0,511
601,69	0,622
601,89	0,333
602,09	0,433
602,29	0,575
602,49	0,494
602,69	0,489
602,89	0,470
603,09	0,402
603,29	0,470
603,49	0,544
603,69	0,495
603,90	0,553
604,10	0,576
604,30	0,453
604,50	0,513
604,70	0,629
604,90	0,420
605,10	0,432
605,30	0,409
605,50	0,543
605,70	0,488
605,90	0,485
606,10	0,468
606,30	0,470
606,50	0,749
606,70	0,531
606,90	0,478
607,10	0,405
607,30	0,486
607,50	0,613
607,70	0,599
607,90	0,559
608,10	0,432
608,30	0,412
608,50	0,746
608,70	0,619
608,90	0,530
609,11	0,692
609,31	0,528
609,51	0,526
609,71	0,727
609,91	0,381
610,11	0,549
610,31	0,361
610,51	0,624
610,71	0,336
610,91	0,452
611,11	0,521
611,31	0,508
611,51	0,479
611,71	0,555
611,91	0,373
612,11	0,492
612,31	0,674
612,51	0,567
612,71	0,630
612,91	0,477
613,11	0,659
613,31	0,708
613,51	0,727
613,71	0,539
613,91	0,686
614,11	0,717
614,31	0,840
614,50	1,071
614,70	1,020
614,90	1,076
615,10	1,095
615,30	1,256
615,50	1,428
615,70	1,452
615,90	2,020
616,10	2,154
616,30	2,510
616,50	2,811
616,70	3,248
616,90	4,010
617,10	4,190
617,30	4,856
617,50	5,681
617,70	6,397
617,90	7,249
618,10	7,945
618,30	9,085
618,50	10,171
618,70	11,336
618,90	12,668
619,10	13,730
619,30	15,245
619,49	17,189
619,69	18,596
619,89	19,927
620,09	22,034
620,29	23,475
620,49	25,149
620,69	26,999
620,89	29,003
621,09	30,317
621,29	31,533
621,49	32,822
621,69	34,560
621,89	36,015
622,09	37,090
622,29	38,938
622,48	40,194
622,68	40,553
622,88	41,901
623,08	43,293
623,28	44,290
623,48	45,182
623,68	47,079
623,88	47,837
624,08	48,791
624,28	50,416
624,48	51,639
624,67	52,892
624,87	54,502
625,07	56,048
625,27	57,880
625,47	59,928
625,67	61,529
625,87	62,334
626,07	63,486
626,27	65,753
626,47	68,325
626,66	69,676
626,86	70,961
627,06	74,067
627,26	73,883
627,46	76,082
627,66	77,351
627,86	78,946
628,06	80,737
628,25	80,794
628,45	82,639
628,65	83,960
628,85	83,675
629,05	84,845
629,25	84,854
629,45	85,569
629,65	86,439
629,84	86,108
630,04	87,213
630,24	87,271
630,44	86,105
630,64	87,334
630,84	87,994
631,04	86,128
631,23	86,969
631,43	87,065
631,63	86,433
631,83	86,537
632,03	86,251
632,23	85,776
632,42	85,589
632,62	85,343
632,82	84,990
633,02	84,751
633,22	85,528
633,42	84,513
633,62	84,645
633,81	84,017
634,01	82,734
634,21	82,435
634,41	82,151
634,61	81,754
634,80	80,698
635,00	79,800
635,20	80,110
635,40	78,557
635,60	77,476
635,80	77,337
635,99	76,161
636,19	75,667
636,39	73,644
636,59	72,279
636,79	71,345
636,98	70,322
637,18	68,953
637,38	68,572
637,58	67,555
637,78	65,201
637,97	65,064
638,17	64,075
638,37	62,275
638,57	61,465
638,77	61,071
638,96	59,699
639,16	58,378
639,36	58,053
639,56	57,120
639,76	56,574
639,95	56,200
640,15	55,279
640,35	54,774
640,55	54,542
640,75	53,482
640,94	53,288
641,14	52,405
641,34	51,660
641,54	51,631
641,73	51,195
641,93	51,162
642,13	50,899
642,33	50,304
642,53	49,259
642,72	49,620
642,92	49,406
643,12	47,992
643,32	48,109
643,51	49,119
643,71	48,116
643,91	47,329
644,11	47,443
644,30	46,014
644,50	45,394
644,70	45,237
644,90	44,225
645,09	43,996
645,29	43,426
645,49	43,470
645,69	42,551
645,88	41,769
646,08	42,018
646,28	40,684
646,48	40,784
646,67	39,492
646,87	38,988
647,07	39,748
647,26	38,463
647,46	37,627
647,66	37,860
647,86	36,946
648,05	36,929
648,25	36,736
648,45	36,281
648,65	34,744
648,84	34,834
649,04	34,823
649,24	34,125
649,43	32,509
649,63	31,541
649,83	29,866
650,03	28,507
650,22	28,444
650,42	26,346
650,62	25,144
650,81	23,871
651,01	22,200
651,21	20,149
651,40	19,156
651,60	18,121
651,80	16,704
652,00	15,736
652,19	14,333
652,39	14,096
652,59	12,982
652,78	12,719
652,98	13,034
653,18	12,497
653,37	12,755
653,57	13,029
653,77	12,984
653,96	13,208
654,16	13,610
654,36	14,825
654,55	15,298
654,75	15,374
654,95	16,222
655,14	16,012
655,34	16,775
655,54	16,346
655,73	15,457
655,93	16,322
656,13	14,831
656,32	14,781
656,52	15,122
656,72	14,243
656,91	13,305
657,11	13,477
657,31	12,840
657,50	12,619
657,70	12,432
657,90	11,450
658,09	10,966
658,29	10,853
658,49	10,178
658,68	9,964
658,88	9,119
659,07	8,405
659,27	7,943
659,47	8,017
659,66	6,737
659,86	7,254
660,06	6,587
660,25	5,610
660,45	5,715
660,64	4,743
660,84	3,997
661,04	4,233
661,23	3,640
661,43	2,951
661,63	2,988
661,82	2,249
662,02	2,331
662,21	1,716
662,41	1,352
662,61	1,655
662,80	0,926
663,00	1,223
663,19	1,115
663,39	1,344
663,59	1,498
663,78	0,726
663,98	0,872
664,17	0,859
664,37	1,242
664,57	0,617
664,76	1,408
664,96	1,117
665,15	0,507
665,35	0,912
665,55	0,624
665,74	0,966
665,94	0,586
666,13	1,241
666,33	0,491
666,53	1,005
666,72	0,417
666,92	1,056
667,11	0,758
667,31	0,849
667,50	0,741
667,70	1,070
667,90	0,911
668,09	1,053
668,29	1,061
668,48	0,825
668,68	0,970
668,87	0,538
669,07	1,146
669,26	1,032
669,46	0,675
669,66	0,975
669,85	0,946
670,05	0,615
670,24	0,759
670,44	1,075
670,63	0,808
670,83	0,876
671,02	1,011
671,22	1,178
671,42	0,973
671,61	0,846
671,81	0,570
672,00	0,807
672,20	0,829
672,39	0,728
672,59	0,755
672,78	0,428
672,98	0,696
673,17	0,704
673,37	0,763
673,56	0,552
673,76	0,536
673,95	0,853
674,15	0,375
674,34	0,744
674,54	0,611
674,73	0,753
674,93	0,943
675,13	0,495
675,32	0,595
675,52	0,748
675,71	0,640
675,91	0,698
676,10	0,514
676,30	0,378
676,49	0,509
676,69	0,587
676,88	0,879
677,08	0,713
677,27	0,457
677,47	0,694
677,66	0,721
677,86	0,641
678,05	0,782
678,24	0,507
678,44	0,759
678,63	0,644
678,83	0,769
679,02	0,664
679,22	0,330
679,41	0,638
679,61	0,467
679,80	0,433
680,00	0,649
680,19	0,579
680,39	0,520
680,58	0,371
680,78	0,551
680,97	0,453
681,17	0,604
681,36	0,380
681,56	0,518
681,75	0,500
681,94	0,606
682,14	0,825
682,33	0,558
682,53	0,687
682,72	0,765
682,92	0,657
683,11	0,553
683,31	0,254
683,50	0,598
683,69	0,479
683,89	0,406
684,08	0,438
684,28	0,360
684,47	0,420
684,67	0,329
684,86	0,457
685,06	0,425
685,25	0,449
685,44	0,290
685,64	0,316
685,83	0,487
686,03	0,112
686,22	0,436
686,42	0,387
686,61	0,499
686,80	0,568
687,00	0,504
687,19	0,572
687,39	0,396
687,58	0,401
687,77	0,255
687,97	0,346
688,16	0,252
688,36	0,207
688,55	0,300
688,74	0,344
688,94	0,272
689,13	0,424
689,33	0,392
689,52	0,426
689,71	0,329
689,91	0,290
690,10	0,461
690,30	0,335
690,49	0,394
690,68	0,401
690,88	0,544
691,07	0,278
691,27	0,322
691,46	0,158
691,65	0,431
691,85	0,358
692,04	0,323
692,23	0,288
692,43	0,314
692,62	0,448
692,82	0,469
693,01	0,280
693,20	0,461
693,40	0,153
693,59	0,389
693,78	0,376
693,98	0,351
694,17	0,201
694,36	0,682
694,56	0,526
694,75	0,252
694,94	0,465
695,14	0,335
695,33	0,357
695,53	0,329
695,72	0,077
695,91	0,392
696,11	0,193
696,30	0,501
696,49	0,327
696,69	0,469
696,88	0,326
697,07	0,183
697,27	0,411
697,46	0,410
697,65	0,279
697,85	0,226
698,04	0,665
698,23	0,628
698,43	0,625
698,62	0,484
698,81	0,596
699,01	1,032
699,20	0,572
699,39	0,545
699,58	0,850
699,78	0,788
699,97	0,814
700,16	0,628
700,36	0,439
700,55	0,834
700,74	0,753
700,94	0,963
701,13	0,681
701,32	1,264
701,52	1,173
701,71	0,944
701,90	1,106
702,09	1,162
702,29	1,004
702,48	1,227
702,67	1,135
702,87	1,090
703,06	1,507
703,25	1,271
703,44	0,657
703,64	1,300
703,83	1,195
704,02	1,256
704,22	0,938
704,41	1,084
704,60	2,104
704,79	1,826
704,99	2,051
705,18	1,710
705,37	1,398
705,56	1,917
705,76	3,042
705,95	1,451
706,14	2,665
706,33	2,327
706,53	2,595
706,72	1,227
706,91	2,564
707,11	2,796
707,30	2,235
707,49	3,376
707,68	1,359
707,88	2,098
708,07	1,493
708,26	1,756
708,45	2,854
708,64	1,898
708,84	2,640
709,03	2,737
709,22	1,534
709,41	3,136
709,61	2,874
709,80	3,531
709,99	3,697
710,18	2,772
710,38	3,452
710,57	1,990
710,76	2,998
710,95	2,921
711,14	4,988
711,34	3,620
711,53	3,660
711,72	3,185
711,91	2,720
712,11	4,524
712,30	5,069
712,49	5,562
712,68	4,342
712,87	4,405
713,07	6,394
713,26	3,305
713,45	3,934
713,64	4,989
713,83	2,190
714,03	5,777
714,22	4,385
714,41	4,925
714,60	5,648
714,79	3,097
714,99	3,002
715,18	3,848
715,37	4,709
715,56	5,266
715,75	2,824
715,94	5,271
716,14	3,524
716,33	5,711
716,52	2,916
716,71	5,642
716,90	6,856
717,10	4,321
717,29	4,171
717,48	7,436
717,67	1,830
717,86	3,399
718,05	2,878
718,24	5,812
718,44	4,210
718,63	4,359
718,82	6,171
719,01	6,675
719,20	4,596
719,39	6,386
719,59	3,241
719,78	6,360
719,97	9,205
720,16	6,237
720,35	3,511
720,54	7,757
720,73	6,362
720,93	7,814
721,12	3,100
721,31	7,040
721,50	3,858
721,69	8,110
721,88	9,955
722,07	8,639
722,27	5,691
722,46	7,506
722,65	4,824
722,84	5,573
723,03	5,908
723,22	7,080
723,41	10,952
723,60	11,863
723,79	9,945
723,99	7,646
724,18	13,429
724,37	9,868
724,56	7,850
724,75	8,378
724,94	7,759
725,13	12,543
725,32	7,605
725,51	8,348
725,71	7,008
725,90	7,981
726,09	13,747
726,28	12,954
726,47	9,961
726,66	10,233
726,85	7,787
727,04	10,177
727,23	7,058
727,42	11,512
727,61	12,910
727,81	9,593
728,00	12,081
728,19	8,924
728,38	6,048
728,57	10,587
728,76	14,196
728,95	12,165
729,14	8,041
729,33	14,050
729,52	9,111
729,71	13,203
729,90	7,577
730,09	6,425
730,28	18,014
730,48	8,353
730,67	16,687
730,86	7,338
731,05	13,318
731,24	6,977
731,43	11,321
731,62	15,163
731,81	11,182
732,00	12,071
732,19	11,494
732,38	4,581
732,57	11,444
732,76	13,929
732,95	7,733
733,14	5,592
733,33	9,753
733,52	13,923
733,71	9,579
733,90	16,838
734,09	12,484
734,28	17,379
734,47	11,711
734,66	17,368
734,85	13,333
735,04	19,346
735,23	13,624
735,42	17,723
735,61	17,867
735,81	14,069
736,00	19,428
736,19	14,349
736,38	9,481
736,57	18,802
736,76	13,178
736,95	15,000
737,14	15,957
737,33	21,669
737,52	15,686
737,71	13,301
737,90	19,213
738,09	15,491
738,28	23,604
738,47	13,889
738,66	21,094
738,85	13,058
739,04	15,620
739,22	20,946
739,41	15,323
739,60	15,050
739,79	17,466
739,98	10,526
740,17	20,918
740,36	23,571
740,55	19,400
740,74	13,565
740,93	22,358
741,12	21,691
741,31	13,419
741,50	12,429
741,69	13,704
741,88	13,400
742,07	18,773
742,26	13,858
742,45	16,798
742,64	31,475
742,83	11,064
743,02	9,550
743,21	25,352
743,40	14,587
743,59	14,754
743,78	18,341
743,97	20,113
744,16	16,630
744,34	20,276
744,53	19,262
744,72	27,859
744,91	9,053
745,10	24,313
745,29	15,130
745,48	19,961
745,67	23,625
745,86	12,207
746,05	30,594
746,24	31,373
746,43	22,459
746,62	11,290
746,81	18,721
747,00	17,745
747,18	28,571
747,37	19,616
747,56	22,022
747,75	23,851
747,94	26,039
748,13	28,311
748,32	25,855
748,51	22,573
748,70	23,981
748,89	22,222
749,08	19,143
749,26	21,241
749,45	33,412
749,64	28,040
749,83	25,954
750,02	20,994
750,21	20,528
750,40	15,885
750,59	28,066
750,78	24,852
750,96	23,743
751,15	16,120
751,34	25,654
751,53	31,034
751,72	17,790
751,91	25,205
752,10	14,506
752,29	26,554
752,47	13,483
752,66	28,732
752,85	19,505
753,04	30,599
753,23	13,245
753,42	32,219
753,61	25,817
753,80	27,100
753,98	21,053
754,17	33,129
754,36	24,859
754,55	19,436
754,74	38,728
754,93	20,749
755,12	25,600
755,30	20,222
755,49	35,168
755,68	30,548
755,87	23,724
756,06	39,665
756,25	26,349
756,43	26,552
756,62	32,344
756,81	23,432
757,00	37,391
757,19	35,616
757,38	30,599
757,56	30,000
757,75	31,699
757,94	29,022
758,13	30,195
758,32	34,848
758,51	29,779
758,69	20,800
758,88	35,435
759,07	30,824
759,26	27,442
759,45	41,921
759,63	39,033
759,82	34,343
760,01	24,415
760,20	35,409
760,39	37,687
760,57	37,190
760,76	14,414
760,95	36,111
761,14	39,592
761,33	31,250
761,51	35,842
761,70	50,345
761,89	43,852
762,08	36,279
762,27	37,729
762,45	44,747
762,64	35,531
762,83	53,097
763,02	45,581
763,21	14,655
763,39	42,041
763,58	41,132
763,77	33,591
763,96	41,365
764,14	49,167
764,33	39,560
764,52	55,794
764,71	40,359
764,89	28,922
765,08	37,500
765,27	42,007
765,46	50,000
765,65	35,808
765,83	44,589
766,02	34,468
766,21	40,331
766,40	47,619
766,58	40,244
766,77	35,323
766,96	69,091
767,15	36,232
767,33	31,579
767,52	52,439
767,71	46,087
767,90	47,753
768,08	43,969
768,27	43,500
768,46	43,750
768,64	55,440
768,83	52,604
769,02	56,000
769,21	32,751
769,39	31,395
769,58	51,445
769,77	55,172
769,96	47,120
770,14	37,415
770,33	39,720
770,52	36,508
770,70	72,667
770,89	40,268
771,08	48,305
771,27	76,804
771,45	42,982
771,64	65,625
771,83	49,065
772,01	59,036
772,20	69,347
772,39	48,667
772,57	68,992
772,76	35,556
772,95	44,681
773,14	59,677
773,32	63,226
773,51	49,254
773,70	55,625
773,88	73,224
774,07	47,644
774,26	45,390
774,44	34,756
774,63	70,558
774,82	62,805
775,00	67,333
775,19	52,000
775,38	73,988
775,56	79,167
775,75	72,289
775,94	93,671
776,12	51,381
776,31	68,235
776,50	47,727
776,68	57,368
776,87	46,591
777,06	80,690
777,24	87,778
777,43	59,615
777,62	110,294
777,80	42,568
777,99	78,857
778,18	61,386
778,36	84,800
778,55	85,124
778,74	66,667
778,92	61,538
779,11	59,167
779,29	57,862
779,48	72,109
779,67	72,868
779,85	91,870
780,04	56,757
780,23	58,993
780,41	49,219
780,60	41,579
780,79	74,576
780,97	90,789
781,16	78,182
781,34	114,433
781,53	72,650
781,72	63,504
781,90	54,687
782,09	71,613
782,28	80,292
782,46	52,593
782,65	67,143
782,83	79,775
783,02	36,250
783,21	82,667
783,39	86,957
783,58	76,923
783,76	58,659
783,95	61,818
784,14	67,550
784,32	102,013
784,51	68,103
784,69	87,288
784,88	115,315
785,06	27,731
785,25	73,885
785,44	85,612
785,62	82,143
785,81	126,761
785,99	89,209
786,18	89,865
786,37	80,000
786,55	57,798
786,74	76,974
786,92	84,375
787,11	73,333
787,29	73,134
787,48	61,333
787,67	100,000
787,85	92,241
788,04	71,782
788,22	51,639
788,41	101,176
788,59	100,917
788,78	67,879
788,96	92,453
789,15	109,474
789,34	100,000
789,52	53,097
789,71	72,868
789,89	129,787
790,08	77,397
790,26	115,714
790,45	59,091
790,63	56,481
790,82	90,909
791,00	61,111
791,19	36,559
791,38	105,556
791,56	99,123
791,75	125,688
791,93	96,552
792,12	60,947
792,30	121,600
792,49	83,193
792,67	77,612
792,86	89,147
793,04	77,570
793,23	72,500
793,41	87,342
793,60	95,960
793,78	123,684
793,97	161,538
794,15	90,000
794,34	109,890
794,52	162,338
794,71	93,827
794,89	100,000
795,08	113,592
795,26	102,778
795,45	86,567
795,63	65,909
795,82	89,720
796,00	83,486
796,19	85,833
796,37	81,752
796,56	104,301
796,74	74,336
796,93	66,292
797,11	56,962
797,30	75,833
797,48	91,724
797,67	88,333
797,85	58,163
798,04	108,333
798,22	88,889
798,41	150,980
798,59	106,316
798,77	116,923
798,96	112,903
799,14	107,759
799,33	106,870
799,51	53,846
799,70	90,604
799,88	63,636
800,07	93,421
800,25	64,828
800,44	80,808
800,62	82,353
800,80	63,768
800,99	134,921
801,17	81,034
801,36	85,517
801,54	130,208
801,73	94,949
801,91	73,770
802,10	94,048
802,28	81,308
802,46	111,111
802,65	118,391
802,83	164,045
803,02	95,789
803,20	96,875
803,39	56,897
803,57	116,867
803,75	83,108
803,94	93,277
804,12	60,000
804,31	76,991
804,49	109,615
804,67	90,400
804,86	66,071
805,04	92,568
805,23	100,000
805,41	126,230
805,59	72,131
805,78	77,273
805,96	81,410
806,15	86,719
806,33	86,555
806,51	108,850
806,70	215,000
806,88	60,976
807,07	92,857
807,25	62,893
807,43	88,079
807,62	95,122
807,80	96,774
807,99	94,444
808,17	107,801
808,35	108,772
808,54	136,559
808,72	96,800
808,90	126,316
809,09	81,667
809,27	115,315
809,46	101,786
809,64	55,882
809,82	94,253
810,01	76,515
810,19	109,000
810,37	78,462
810,56	123,171
810,74	59,603
810,92	105,303
811,11	84,314
811,29	78,014
811,48	113,131
811,66	94,574
811,84	113,761
812,03	77,273
812,21	92,308
812,39	63,559
812,58	84,314
812,76	96,262
812,94	113,333
813,13	61,905
813,31	105,000
813,49	140,217
813,68	101,739
813,86	75,510
814,04	128,155
814,23	149,495
814,41	97,059
814,59	76,836
814,78	105,147
814,96	86,486
815,14	123,333
815,33	104,348
815,51	57,778
815,69	132,099
815,87	89,565
816,06	123,125
816,24	74,834
816,42	48,718
816,61	83,898
816,79	166,265
816,97	126,126
817,16	80,000
817,34	86,207
817,52	73,103
817,70	114,286
817,89	71,901
818,07	99,138
818,25	72,072
818,44	61,628
818,62	85,345
818,80	82,517
818,98	102,857
819,17	65,385
819,35	62,941
819,53	99,010
819,72	68,605
819,90	102,395
820,08	58,442
820,26	127,193
820,45	90,964
820,63	69,271
820,81	67,785
820,99	101,504
821,18	65,926
821,36	70,476
821,54	55,814
821,73	55,676
821,91	70,213
822,09	72,941
822,27	65,482
822,46	87,500
822,64	83,444
822,82	62,439
823,00	76,577
823,19	45,455
823,37	88,571
823,55	82,353
823,73	71,333
823,91	65,746
824,10	88,827
824,28	54,074
824,46	37,791
824,64	50,490
824,83	52,846
825,01	78,261
825,19	67,429
825,37	58,854
825,56	65,000
825,74	71,905
825,92	69,663
826,10	88,199
826,28	64,430
826,47	69,919
826,65	62,162
826,83	53,763
827,01	57,576
827,19	72,785
827,38	55,440
827,56	73,558
827,74	58,943
827,92	67,317
828,10	56,522
828,29	51,429
828,47	75,000
828,65	29,730
828,83	70,202
829,01	34,667
829,20	60,127
829,38	57,261
829,56	46,964
829,74	91,667
829,92	50,515
830,10	62,162
830,29	53,514
830,47	63,542
830,65	48,214
830,83	58,286
831,01	46,667
831,20	62,871
831,38	57,561
831,56	56,680
831,74	54,857
831,92	59,659
832,10	76,818
832,29	71,090
832,47	30,088
832,65	61,702
832,83	48,372
833,01	37,945
833,19	43,891
833,37	53,333
833,56	51,174
833,74	45,344
833,92	44,248
834,10	60,914
834,28	40,385
834,46	45,329
834,64	56,641
834,83	47,099
835,01	67,315
835,19	43,602
835,37	39,841
835,55	51,986
835,73	56,985
835,91	44,015
836,09	26,971
836,28	59,924
836,46	54,386
836,64	47,951
836,82	48,507
837,00	50,680
837,18	42,688
837,36	51,872
837,54	38,258
837,72	25,100
837,91	40,964
838,09	38,400
838,27	35,165
838,45	38,511
838,63	36,610
838,81	49,013
838,99	45,993
839,17	34,951
839,35	26,296
839,53	42,953
839,72	34,746
839,90	34,347
840,08	33,333
840,26	39,432
840,44	19,136
840,62	31,987
840,80	46,296
840,98	37,462
841,16	25,267
841,34	36,232
841,52	41,214
841,70	34,007
841,89	37,419
842,07	32,162
842,25	31,494
842,43	36,452
842,61	40,751
842,79	40,549
842,97	36,585
843,15	42,980
843,33	29,454
843,51	29,356
843,69	22,222
843,87	33,962
844,05	20,755
844,23	30,270
844,41	29,648
844,59	29,545
844,77	17,291
844,95	33,252
845,13	29,781
845,31	24,302
845,50	30,928
845,68	24,352
845,86	36,557
846,04	32,346
846,22	34,606
846,40	16,010
846,58	15,013
846,76	21,197
846,94	19,471
847,12	26,066
847,30	23,272
847,48	25,420
847,66	26,098
847,84	27,919
848,02	27,235
848,20	29,360
848,38	21,639
848,56	31,398
848,74	21,488
848,92	16,701
849,10	25,446
849,28	26,797
849,46	21,963
849,64	20,952
849,82	21,154
850,00	16,427
850,18	17,090
850,36	25,219
850,54	21,749
850,72	28,482
850,90	34,793
851,08	19,753
851,26	30,769
851,44	22,088
851,62	24,724
851,80	17,495
851,98	35,391
852,16	26,337
852,34	18,216
852,52	20,875
852,70	11,245
852,87	18,095
853,05	22,645
853,23	22,745
853,41	17,996
853,59	25,094
853,77	22,222
853,95	27,754
854,13	15,922
854,31	19,546
854,49	15,832
854,67	22,744
854,85	29,043
855,03	23,372
855,21	19,289
855,39	20,805
855,57	26,993
855,75	18,044
855,93	19,435
856,11	25,518
856,28	19,271
856,46	14,869
856,64	20,550
856,82	17,277
857,00	16,782
857,18	17,214
857,36	18,487
857,54	16,385
857,72	18,030
857,90	17,298
858,08	11,574
858,26	12,080
858,44	8,696
858,61	14,905
858,79	17,674
858,97	9,885
859,15	17,199
859,33	14,571
859,51	16,773
859,69	12,202
859,87	22,987
860,05	17,992
860,23	10,303
860,40	19,048
860,58	16,236
860,76	14,407
860,94	14,198
861,12	9,490
861,30	17,784
861,48	13,881
861,66	16,196
861,84	14,804
862,01	22,460
862,19	19,106
862,37	11,516
862,55	13,649
862,73	11,549
862,91	10,649
863,09	18,075
863,27	5,710
863,44	11,126
863,62	13,324
863,80	11,372
863,98	16,986
864,16	7,522
864,34	11,299
864,52	12,870
864,69	15,904
864,87	19,309
865,05	7,851
865,23	8,575
865,41	10,727
865,59	14,833
865,76	8,269
865,94	10,855
866,12	14,609
866,30	15,460
866,48	11,471
866,66	9,978
866,83	10,394
867,01	15,090
867,19	14,782
867,37	8,283
867,55	11,745
867,73	11,845
867,90	10,386
868,08	14,597
868,26	8,096
868,44	8,584
868,62	9,718
868,79	12,446
868,97	10,128
869,15	10,297
869,33	9,372
869,51	11,890
869,69	12,826
869,86	10,154
870,04	7,619
870,22	10,510
870,40	8,990
870,57	15,600
870,75	11,686
870,93	11,550
871,11	7,325
871,29	11,789
871,46	10,675
871,64	10,880
871,82	12,098
872,00	13,749
872,18	13,449
872,35	10,784
872,53	13,233
872,71	11,357
872,89	6,673
873,06	11,993
873,24	10,294
873,42	10,484
873,60	6,887
873,77	12,100
873,95	8,588
874,13	8,676
874,31	9,626
874,49	10,375
874,66	7,732
874,84	4,885
875,02	9,439
875,20	9,587
875,37	5,537
875,55	4,911
875,73	8,024
875,91	8,516
876,08	7,166
876,26	6,411
876,44	7,907
876,61	10,916
876,79	8,879
876,97	6,441
877,15	10,305
877,32	9,291
877,50	7,869
877,68	9,664
877,86	10,761
878,03	6,677
878,21	9,218
878,39	10,222
878,56	10,251
878,74	6,941
878,92	5,119
879,10	5,621
879,27	8,044
879,45	11,119
879,63	6,225
879,80	7,818
879,98	6,263
880,16	9,381
880,34	1,958
880,51	7,176
880,69	8,132
880,87	3,780
881,04	8,704
881,22	8,696
881,40	4,463
881,57	5,842
881,75	7,589
881,93	5,208
882,10	6,726
882,28	5,352
882,46	5,998
882,63	9,673
882,81	9,253
882,99	4,735
883,16	7,067
883,34	6,455
883,52	5,420
883,69	6,442
883,87	9,174
884,05	5,674
884,22	4,303
884,40	7,063
884,58	4,190
884,75	6,191
884,93	5,288
885,11	5,495
885,28	7,608
885,46	5,968
885,64	6,021
885,81	7,696
885,99	3,655
886,17	4,625
886,34	6,188
886,52	5,023
886,70	6,272
886,87	7,302
887,05	4,624
887,22	4,818
887,40	7,552
887,58	5,871
887,75	4,586
887,93	6,495
888,11	2,323
888,28	4,884
888,46	4,894
888,63	6,985
888,81	4,805
888,99	4,265
889,16	3,899
889,34	4,954
889,51	3,383
889,69	5,360
889,87	4,652
890,04	3,812
890,22	6,175
890,39	2,742
890,57	4,855
890,75	4,404
890,92	3,968
891,10	4,313
891,27	4,636
891,45	4,708
891,63	5,681
891,80	4,005
891,98	4,815
892,15	5,161
892,33	2,055
892,51	4,659
892,68	2,844
892,86	5,163
893,03	4,732
893,21	3,620
893,38	3,614
893,56	4,093
893,74	3,465
893,91	4,769
894,09	5,012
894,26	5,055
894,44	4,526
894,61	4,332
894,79	3,065
894,96	3,533
895,14	3,401
895,32	3,282
895,49	2,636
895,67	3,581
895,84	4,385
896,02	3,909
896,19	1,778
896,37	4,863
896,54	3,940
896,72	4,827
896,89	2,508
897,07	4,338
897,25	4,842
897,42	3,391
897,60	3,828
897,77	4,969
897,95	4,231
898,12	3,786
898,30	3,585
898,47	3,593
898,65	2,883
898,82	3,981
899,00	2,547
899,17	3,813
899,35	4,168
899,52	3,396
899,70	2,524
899,87	3,035
900,05	4,424
900,22	4,158
900,40	2,656
900,57	5,820
900,75	1,662
900,92	4,145
901,10	4,282
901,27	3,612
901,45	3,733
901,62	3,563
901,80	4,550
901,97	4,132
902,15	3,670
902,32	3,183
902,50	3,438
902,67	2,881
902,85	4,352
903,02	4,523
903,20	3,078
903,37	3,105
903,54	3,331
903,72	2,567
903,89	3,691
904,07	3,554
904,24	3,639
904,42	2,282
904,59	2,079
904,77	2,694
904,94	2,856
905,12	1,385
905,29	3,352
905,47	4,107
905,64	3,011
905,81	2,642
905,99	3,014
906,16	3,256
906,34	2,127
906,51	3,713
906,69	2,732
906,86	2,479
907,03	3,178
907,21	2,321
907,38	2,396
907,56	3,736
907,73	3,248
907,91	4,080
908,08	4,120
908,25	2,530
908,43	2,526
908,60	2,793
908,78	4,196
908,95	3,326
909,13	4,564
909,30	1,094
909,47	2,438
909,65	4,428
909,82	3,352
910,00	3,354
910,17	3,731
910,34	3,146
910,52	3,184
910,69	4,220
910,87	3,833
911,04	3,417
911,21	4,380
911,39	3,819
911,56	3,109
911,73	2,905
911,91	3,997
912,08	2,953
912,26	2,261
912,43	2,982
912,60	2,988
912,78	3,362
912,95	4,200
913,13	3,828
913,30	3,192
913,47	4,362
913,65	1,626
913,82	3,399
913,99	3,073
914,17	3,726
914,34	3,761
914,51	4,267
914,69	2,931
914,86	4,779
915,03	3,554
915,21	3,139
915,38	2,546
915,56	4,212
915,73	4,172
915,90	4,876
916,08	3,968
916,25	4,182
916,42	3,445
916,60	4,063
916,77	4,432
916,94	4,442
917,12	5,732
917,29	3,964
917,46	4,601
917,64	4,312
917,81	4,994
917,98	3,926
918,16	5,294
918,33	5,194
918,50	5,105
918,67	4,597
918,85	5,281
919,02	5,507
919,19	6,491
919,37	5,594
919,54	5,373
919,71	5,704
919,89	5,288
920,06	4,751
920,23	5,172
920,41	6,128
920,58	5,476
920,75	5,915
920,92	5,248
921,10	5,354
921,27	4,181
921,44	6,313
921,62	5,249
921,79	6,779
921,96	6,195
922,13	5,099
922,31	5,982
922,48	5,836
922,65	5,096
922,82	4,866
923,00	5,903
923,17	3,784
923,34	5,922
923,52	4,790
923,69	4,934
923,86	5,118
924,03	5,336
924,21	4,484
924,38	5,659
924,55	6,276
924,72	6,448
924,90	6,063
925,07	5,359
925,24	5,511
925,41	5,215
925,59	4,975
925,76	4,217
925,93	5,171
926,10	5,331
926,28	5,592
926,45	5,145
926,62	5,364
926,79	5,302
926,96	6,098
927,14	5,886
927,31	4,948
927,48	5,217
927,65	4,776
927,83	4,910
928,00	4,673
928,17	5,178
928,34	5,023
928,51	5,157
928,69	5,522
928,86	4,355
929,03	5,835
929,20	4,375
929,37	5,851
929,55	4,827
929,72	4,513
929,89	4,217
930,06	4,870
930,23	4,861
930,41	5,072
930,58	4,678
930,75	4,972
930,92	4,469
931,09	5,369
931,27	4,421
931,44	3,528
931,61	5,387
931,78	4,283
931,95	4,463
932,12	4,106
932,30	4,550
932,47	4,541
932,64	4,808
932,81	4,599
932,98	3,508
933,16	4,368
933,33	5,329
933,50	4,265
933,67	4,771
933,84	4,386
934,01	4,293
934,18	4,319
934,36	4,082
934,53	3,104
934,70	3,841
934,87	4,576
935,04	4,501
935,21	4,042
935,38	4,410
935,56	3,929
935,73	4,107
935,90	3,664
936,07	4,244
936,24	4,945
936,41	4,353
936,58	3,272
936,76	4,201
936,93	3,314
937,10	3,814
937,27	3,719
937,44	3,614
937,61	4,622
937,78	4,180
937,95	3,561
938,13	4,021
938,30	4,455
938,47	4,713
938,64	4,414
938,81	4,262
938,98	4,128
939,15	4,996
939,32	4,388
939,49	5,223
939,66	5,082
939,84	5,516
940,01	5,467
940,18	5,143
940,35	4,885
940,52	3,329
940,69	5,993
940,86	4,666
941,03	4,595
941,20	6,050
941,37	5,455
941,54	3,399
941,71	3,998
941,89	5,986
942,06	5,738
942,23	5,581
942,40	6,125
942,57	6,297
942,74	5,936
942,91	5,395
943,08	6,568
943,25	6,018
943,42	5,634
943,59	5,854
943,76	7,179
943,93	6,091
944,10	5,019
944,27	5,774
944,44	6,835
944,61	5,759
944,79	5,840
944,96	7,076
945,13	4,800
945,30	5,023
945,47	6,280
945,64	6,413
945,81	7,073
945,98	6,118
946,15	6,018
946,32	5,537
946,49	5,522
946,66	6,527
946,83	6,475
947,00	6,890
947,17	5,904
947,34	5,478
947,51	5,578
947,68	5,978
947,85	5,664
948,02	6,505
948,19	7,176
948,36	6,604
948,53	6,010
948,70	6,885
948,87	6,621
949,04	5,215
949,21	4,931
949,38	6,980
949,55	6,118
949,72	7,042
949,89	6,502
950,06	5,141
950,23	6,579
950,40	7,416
950,57	4,438
950,74	8,256
950,91	6,978
951,08	6,407
951,25	7,838
951,42	8,657
951,59	7,024
951,76	7,019
951,93	7,333
952,10	7,546
952,27	5,141
952,44	6,158
952,61	6,825
952,77	6,391
952,94	8,163
953,11	9,905
953,28	8,050
953,45	9,595
953,62	7,855
953,79	8,704
953,96	8,595
954,13	8,536
954,30	8,779
954,47	10,712
954,64	6,386
954,81	7,921
954,98	10,770
955,15	7,546
955,32	7,207
955,49	10,050
955,65	8,756
955,82	11,083
955,99	9,559
956,16	11,498
956,33	10,879
956,50	10,777
956,67	9,594
956,84	9,704
957,01	10,140
957,18	10,327
957,35	11,646
957,52	15,268
957,68	11,333
957,85	16,851
958,02	9,819
958,19	14,708
958,36	17,376
958,53	10,691
958,70	9,955
958,87	10,568
959,04	16,788
959,21	11,919
959,37	12,013
959,54	15,877
959,71	15,829
959,88	12,184
960,05	15,342
960,22	7,929
960,39	15,733
960,56	11,519
960,72	10,790
960,89	25,222
961,06	18,471
961,23	16,448
961,40	13,131
961,57	17,546
961,74	6,962
961,90	22,188
962,07	25,571
962,24	24,715
962,41	23,451
962,58	25,129
962,75	22,301
962,92	25,234
963,08	20,909
963,25	20,180
963,42	27,053
963,59	22,727
963,76	30,112
963,93	29,977
964,10	27,837
964,26	34,211
964,43	32,558
964,60	27,461
964,77	37,831
964,94	23,011
965,10	22,917
965,27	37,337
965,44	28,571
965,61	29,752
965,78	29,393
965,95	37,725
966,11	41,176
966,28	23,792
966,45	45,794
966,62	39,077
966,79	44,082
966,95	44,776
967,12	29,338
967,29	35,417
967,46	40,530
967,63	42,642
967,79	59,459
967,96	45,022
968,13	55,500
968,30	51,210
968,47	49,828
968,63	59,459
968,80	62,385
968,97	59,135
969,14	62,209
969,31	80,556
969,47	82,941
969,64	86,364
969,81	52,850
969,98	73,077
970,14	75,460
970,31	65,409
970,48	72,500
970,65	85,207
970,81	71,918
970,98	82,482
971,15	95,918
971,32	78,906
971,48	89,116
971,65	66,154
971,82	80,392
971,99	122,989
972,15	81,690
972,32	144,144
972,49	106,993
972,66	117,273
972,82	91,860
972,99	98,374
973,16	102,299
973,33	101,786
973,49	78,947
973,66	113,978
973,83	96,117
974,00	150,000
974,16	117,647
974,33	138,596
974,50	68,421
974,67	106,316
974,83	92,857
975,00	137,895
975,17	132,967
975,33	91,011
975,50	141,791
975,67	259,184
975,84	129,851
976,00	108,989
976,17	124,590
976,34	78,000
976,50	98,876
976,67	141,748
976,84	2600,000
977,00	228,571
977,17	233,333
977,34	163,736
977,50	146,269
977,67	192,857
977,84	137,097
978,01	163,830
978,17	688,889
978,34	180,556
978,51	305,882
978,67	182,895
978,84	117,969
979,01	375,676
979,17	171,795
979,34	129,452
979,51	232,653
979,67	175,309
979,84	253,061
980,01	297,778
980,17	221,127
980,34	422,222
980,51	188,406
980,67	163,529
980,84	463,333
981,01	515,000
981,17	608,000
981,34	622,222
981,50	202,941
981,67	223,729
981,84	4000,000
982,00	376,667
982,17	290,476
982,34	124,444
982,50	706,667
982,67	180,208
982,84	2820,000
983,00	1716,667
983,17	208,955
983,33	231,034
983,50	1940,000
983,67	-265,517
983,83	327,273
984,00	-1000,000
984,17	594,444
984,33	-3800,000
984,50	411,429
984,66	269,565
984,83	194,805
985,00	-433,333
985,16	541,379
985,33	547,059
985,49	638,889
985,66	405,882
985,83	460,870
985,99	392,308
986,16	-3175,000
986,32	785,714
986,49	7600,000
986,66	330,303
986,82	700,000
986,99	235,849
987,15	-478,947
987,32	-125,000
987,49	206,000
987,65	6550,000
987,82	354,167
987,98	297,959
988,15	380,000
988,31	1000,000
988,48	-1550,000
988,65	397,619
988,81	397,222
988,98	265,854
989,14	385,714
989,31	595,238
989,47	285,294
989,64	-692,308
989,80	650,000
989,97	464,865
990,14	-280,435
990,30	-390,909
990,47	281,633
990,63	302,778
990,80	214,000
990,96	-600,000
991,13	290,625
991,29	513,793
991,46	0,000
991,62	-723,077
991,79	1150,000
991,95	13600,000
992,12	-1220,000
992,29	-668,750
992,45	177,647
992,62	323,256
992,78	304,545
992,95	-386,667
993,11	460,714
993,28	1320,000
993,44	-960,000
993,61	-593,750
993,77	-3725,000
993,94	-4166,667
994,10	-106,667
994,27	942,105
994,43	332,558
994,60	0,000
994,76	3275,000
994,93	705,000
995,09	-564,706
995,26	1288,889
995,42	274,510
995,59	557,143
995,75	800,000
995,92	2042,857
996,08	355,556
996,25	-1062,500
996,41	-5350,000
996,58	693,333
996,74	265,909
996,91	462,069
997,07	0,000
997,23	13400,000
997,40	-15500,000
997,56	-630,769
997,73	-1262,500
997,89	326,316
998,06	1046,154
998,22	-844,444
998,39	624,000
998,55	1322,222
998,72	-987,500
998,88	-283,333
999,05	-111,538
999,21	361,905
999,37	-566,667
999,54	-1025,000
999,70	-310,000
999,87	806,250
1000,03	394,872
1000,20	285,417
1000,36	0,000
1000,52	362,500
1000,69	-642,857
1000,85	-880,000
1001,02	-537,500
1001,18	2900,000
1001,35	753,846
1001,51	747,059
1001,67	-684,615
1001,84	-2140,000
1002,00	364,865
1002,17	1072,727
1002,33	-3450,000
1002,50	452,381
1002,66	-930,769
1002,82	315,000
1002,99	1007,143
1003,15	-1400,000
1003,32	-1054,545
1003,48	364,286
1003,64	766,667
1003,81	470,370
1003,97	-6700,000
1004,14	1263,636
1004,30	153,333
1004,46	-760,000
1004,63	850,000
1004,79	280,556
1004,95	960,000
1005,12	6350,000
1005,28	658,621
1005,45	443,243
1005,61	324,138
1005,77	-170,833
1005,94	-533,333
1006,10	-5650,000
1006,26	946,154
1006,43	-388,462
1006,59	-936,364
1006,76	871,429
1006,92	1633,333
1007,08	12100,000
1007,25	-222,222
1007,41	500,000
1007,57	4950,000
1007,74	1040,000
1007,90	-403,448
1008,06	243,478
1008,23	805,882
1008,39	-481,250
1008,55	-350,000
1008,72	-1714,286
1008,88	0,000
1009,04	314,634
1009,21	-323,684
1009,37	-791,667
1009,53	278,571
1009,70	3233,333
1009,86	-335,714
1010,02	3633,333
1010,19	790,909
1010,35	233,824
1010,51	-6200,000
1010,68	-1012,500
1010,84	-56,818
1011,00	687,500
1011,17	-372,727
1011,33	0,000
1011,49	-713,333
1011,66	700,000
1011,82	603,226
1011,98	850,000
1012,14	-509,091
1012,31	305,128
1012,47	0,000
1012,63	1700,000
1012,80	821,429
1012,96	-731,250
1013,12	-1850,000
1013,29	783,333
1013,45	351,220
1013,61	4066,667
1013,77	-155,357
1013,94	2640,000
1014,10	194,915
1014,26	-2625,000
1014,43	-268,000
1014,59	690,000
1014,75	-694,444
1014,91	-833,333
1015,08	358,333
1015,24	10100,000
1015,40	617,647
1015,56	-11300,000
1015,73	228,571
1015,89	800,000
1016,05	3550,000
1016,21	-762,500
1016,38	710,526
1016,54	1123,077
1016,70	-3633,333
1016,86	393,750
1017,03	887,500
1017,19	-753,846
1017,35	-670,588
1017,51	-1880,000
1017,68	-900,000
1017,84	-2100,000
1018,00	314,286
1018,16	473,077
1018,33	-1457,143
1018,49	-750,000
1018,65	-254,054
1018,81	343,590
1018,97	-1657,143
1019,14	-3366,667
1019,30	-271,795
1019,46	0,000
1019,62	-711,765
1019,79	-4033,333
1019,95	1175,000
1020,11	5300,000
1020,27	-396,296
1020,43	-265,385
1020,60	1466,667
1020,76	677,778
1020,92	773,333
1021,08	695,000
1021,24	1010,000
1021,41	1144,444
1021,57	1037,500
1021,73	1123,077
1021,89	2880,000
1022,05	-450,000
1022,21	715,000
1022,38	-691,667
1022,54	-2000,000
1022,70	326,667
1022,86	-1287,500
1023,02	529,167
1023,19	1760,000
1023,35	4233,333
1023,51	400,000
1023,67	440,741
1023,83	-350,000
1023,99	247,368
1024,16	-334,615
1024,32	-1400,000
1024,48	-930,000
1024,64	323,810
1024,80	595,652
1024,96	289,744
1025,12	452,381
1025,29	504,762
1025,45	410,526
1025,61	683,333
1025,77	-2660,000
1025,93	-5400,000
1026,09	-1771,429
1026,26	1016,667
1026,42	681,250
1026,58	509,091
1026,74	1916,667
1026,90	316,000
1027,06	425,000
1027,22	1050,000
1027,38	313,462
1027,55	3966,667
1027,71	1133,333
1027,87	-384,000
1028,03	1050,000
1028,19	396,875
1028,35	640,000
1028,51	880,000
1028,67	1008,333
1028,83	-1375,000
1029,00	-290,476
1029,16	1170,000
1029,32	-332,143
1029,48	204,444
1029,64	302,778
1029,80	5050,000
1029,96	1033,333
1030,12	634,783
1030,28	-3966,667
1030,44	-600,000
1030,61	-475,000
1030,77	-211,429
1030,93	-686,667
1031,09	2133,333
1031,25	-10200,000
1031,41	-273,333
1031,57	373,077
1031,73	687,500
1031,89	-981,818
1032,05	-462,963
1032,21	590,909
1032,37	-118,519
1032,53	-764,286
1032,69	-270,833
1032,86	362,963
1033,02	-192,500
1033,18	-431,250
1033,34	478,947
1033,50	-5650,000
1033,66	-146,341
1033,82	582,609
1033,98	-351,852
1034,14	226,923
1034,30	290,323
1034,46	-2933,333
1034,62	630,000
1034,78	-633,333
1034,94	357,895
1035,10	-669,231
1035,26	-230,233
1035,42	-196,552
1035,58	-600,000
1035,74	950,000
1035,90	-661,538
1036,06	-1433,333
1036,22	1550,000
1036,38	-588,235
1036,54	-529,167
1036,70	-300,000
1036,86	7400,000
1037,02	538,889
1037,18	810,526
1037,34	158,095
1037,50	-141,463
1037,66	-523,529
1037,82	3180,000
1037,98	-492,593
1038,14	-384,000
1038,30	-1675,000
1038,46	-542,857
1038,62	408,696
1038,78	-3600,000
1038,94	-557,895
1039,10	472,727
1039,26	370,370
1039,42	-858,333
1039,58	1742,857
1039,74	-394,737
1039,90	437,500
1040,06	-315,385
>>>>>End Processed Spectral Data<<<<<
